DTS Sentinel unit serial number:	SN307009Multiplexer serial number:	multiplexer serial numberHardware model number:	HL4Software version number:	Halo DTS v1.0data status	okinstallation	NYAN30AUG2019differential loss correction	combinedforward channel	channel 1reverse channel	channel 1 reversedate	2003/01/11time	03:18:09forward acquisition time	60.05reverse acquisition time	60.05gamma	510.3900k internal	0.1898k external	0.1898temperature offset calibration	1.0000default loss term (dB/km)	0.3938temperature slope calibration	NaNmultiplexer offset coefficient	1.0000multiplexer slope coefficient	1.0000fibre end	1298.10T internal ref (°C)	34.25T ext. ref 1 (°C)	NaNT ext. ref 2 (°C)	NaNlength (m)	temperature (°C)	forward Stokes	forward anti-Stokes	reverse Stokes	reverse anti-Stokes-584.984	-9.321	0.065	-0.041	0.047	0.040
-582.954	252.476	0.034	0.147	0.073	0.012
-580.925	345.561	-0.050	-0.286	0.048	-0.067
-578.896	700.000	-0.008	-0.112	-0.066	0.078
-576.867	66.003	0.030	-0.045	-0.100	-0.039
-574.838	700.000	0.002	0.039	0.052	-0.190
-572.808	-12.603	-0.113	0.068	-0.126	0.024
-570.779	98.825	-0.023	-0.044	-0.090	-0.048
-568.750	25.469	0.042	0.041	0.007	0.049
-566.721	510.557	-0.014	-0.114	-0.094	-0.147
-564.692	-19.707	0.125	0.067	-0.057	0.030
-562.662	-95.453	-0.048	-0.005	0.034	0.051
-560.633	700.000	-0.008	0.106	-0.033	0.049
-558.604	145.026	-0.016	-0.042	-0.087	0.074
-556.575	110.085	0.034	0.071	-0.081	0.000
-554.546	142.522	0.069	-0.179	-0.058	0.001
-552.517	146.977	0.061	-0.163	0.148	0.120
-550.487	31.912	0.076	0.081	-0.109	0.023
-548.458	25.727	0.011	0.011	-0.059	-0.049
-546.429	62.613	0.049	0.071	-0.139	-0.017
-544.400	-38.513	0.071	-0.028	0.069	-0.054
-542.371	700.000	-0.009	-0.173	-0.019	-0.012
-540.341	3.794	0.070	0.053	-0.141	-0.088
-538.312	-34.240	0.106	-0.044	-0.016	0.059
-536.283	351.706	0.029	-0.172	-0.104	0.001
-534.254	-25.163	0.105	0.052	-0.155	-0.053
-532.225	282.029	-0.036	0.173	-0.071	0.039
-530.195	-200.000	-0.003	-0.094	0.050	0.144
-528.166	700.000	-0.012	-0.139	-0.062	0.082
-526.137	-45.997	-0.002	0.001	-0.110	0.042
-524.108	65.445	0.037	0.055	0.135	-0.101
-522.079	76.098	0.052	-0.084	0.002	-0.042
-520.049	-61.347	-0.047	0.011	-0.047	0.149
-518.020	-54.157	0.028	-0.008	-0.014	-0.026
-515.991	152.734	0.038	-0.103	-0.049	0.004
-513.962	125.492	-0.043	-0.099	0.035	0.047
-511.933	19.914	-0.080	0.074	0.027	-0.057
-509.904	-69.238	-0.044	0.009	0.026	0.002
-507.874	47.076	0.040	0.049	-0.085	-0.031
-505.845	16.120	0.045	-0.040	0.060	-0.125
-503.816	-53.763	0.080	-0.023	-0.083	-0.129
-501.787	-25.755	0.057	0.028	-0.082	0.128
-499.758	-2.507	0.065	-0.045	0.065	0.056
-497.728	255.513	-0.029	0.125	-0.264	-0.088
-495.699	-99.461	-0.127	-0.011	-0.074	-0.053
-493.670	-183.453	-0.131	0.000	-0.023	-0.072
-491.641	-11.239	-0.068	-0.042	-0.096	-0.093
-489.612	107.044	0.036	0.074	-0.010	0.080
-487.582	-9.447	0.039	-0.025	0.007	0.078
-485.553	76.700	-0.092	-0.149	0.146	0.087
-483.524	151.425	-0.052	-0.142	-0.033	-0.122
-481.495	171.789	-0.074	0.223	0.031	0.029
-479.466	61.145	-0.058	0.083	-0.071	-0.026
-477.437	-36.114	-0.081	0.033	-0.078	-0.054
-475.407	-73.618	0.074	-0.013	0.045	0.036
-473.378	62.446	-0.069	0.099	-0.007	0.107
-471.349	162.756	-0.083	0.239	-0.020	0.112
-469.320	123.815	-0.020	-0.047	0.078	0.115
-467.291	205.882	-0.013	-0.048	-0.082	-0.017
-465.261	166.042	-0.071	0.210	0.054	-0.012
-463.232	-46.957	0.022	0.007	0.057	0.094
-461.203	-8.019	0.048	0.031	-0.003	0.068
-459.174	-16.004	-0.028	0.016	0.000	0.045
-457.145	5.247	0.074	-0.057	-0.091	-0.013
-455.115	700.000	-0.005	0.088	-0.071	-0.113
-453.086	122.041	0.062	0.142	-0.064	0.073
-451.057	-41.090	-0.047	-0.017	-0.017	-0.019
-449.028	42.548	0.014	0.017	-0.036	0.060
-446.999	29.216	-0.155	-0.160	0.030	0.085
-444.969	-56.212	-0.076	-0.021	0.051	0.024
-442.940	-18.953	-0.030	0.016	0.112	-0.016
-440.911	-92.254	0.041	0.004	0.034	-0.010
-438.882	29.967	-0.043	-0.044	-0.002	-0.034
-436.853	446.954	0.014	-0.101	0.024	0.011
-434.824	57.376	-0.038	0.053	-0.071	0.029
-432.794	-100.971	-0.044	-0.004	0.076	0.066
-430.765	-3.842	0.136	0.092	-0.155	-0.022
-428.736	84.119	0.061	0.105	-0.020	-0.015
-426.707	214.723	0.020	0.074	-0.031	-0.066
-424.678	447.420	-0.019	-0.141	-0.036	-0.045
-422.648	15.893	0.088	0.077	0.176	0.001
-420.619	51.585	-0.087	0.113	-0.021	-0.033
-418.590	49.537	0.047	-0.059	0.065	-0.024
-416.561	70.102	-0.042	-0.064	0.099	-0.040
-414.532	37.258	-0.109	0.122	-0.011	0.012
-412.502	-61.409	0.042	-0.010	0.086	0.114
-410.473	50.625	0.138	0.177	0.047	-0.011
-408.444	33.904	0.058	-0.063	-0.012	0.013
-406.415	160.396	0.016	0.047	-0.033	-0.101
-404.386	-44.548	0.020	-0.007	0.094	0.036
-402.357	-69.659	0.110	0.022	0.133	0.144
-400.327	186.664	-0.034	-0.110	0.078	0.035
-398.298	20.394	-0.035	0.032	0.043	0.037
-396.269	-73.862	-0.099	-0.018	0.016	0.037
-394.240	-47.541	-0.183	-0.060	0.052	0.045
-392.211	-44.652	-0.011	-0.004	0.002	0.043
-390.181	35.171	-0.016	-0.018	0.100	0.106
-388.152	-71.539	-0.159	0.030	-0.136	-0.001
-386.123	-61.346	0.070	-0.017	0.000	-0.086
-384.094	123.171	0.014	-0.031	-0.006	-0.006
-382.065	-90.249	0.113	0.013	0.005	0.155
-380.035	257.202	0.011	0.046	0.026	-0.143
-378.006	-62.388	0.072	0.017	-0.064	0.093
-375.977	22.059	-0.139	-0.131	-0.292	-0.191
-373.948	295.054	0.022	-0.109	0.023	-0.061
-371.919	115.405	0.023	-0.050	-0.045	-0.038
-369.889	-57.561	-0.088	-0.023	0.093	-0.079
-367.860	-45.213	-0.169	-0.058	0.131	-0.017
-365.831	700.000	-0.005	0.067	-0.015	0.014
-363.802	387.688	-0.020	-0.131	-0.003	-0.059
-361.773	700.000	-0.013	-0.137	0.134	-0.048
-359.744	700.000	-0.002	-0.032	-0.042	0.102
-357.714	66.578	0.010	0.016	0.128	0.111
-355.685	170.649	-0.047	0.142	-0.023	-0.232
-353.656	-200.000	-0.002	-0.093	0.007	0.251
-351.627	34.525	-0.115	0.126	0.037	0.112
-349.598	-91.649	0.117	0.013	0.066	-0.095
-347.568	64.966	-0.023	0.034	-0.055	0.029
-345.539	700.000	-0.010	-0.115	-0.070	0.041
-343.510	155.416	-0.032	-0.089	-0.005	0.021
-341.481	214.606	-0.027	-0.098	-0.135	-0.025
-339.452	6.506	-0.147	-0.115	0.081	0.087
-337.422	99.721	-0.011	0.021	0.023	-0.010
-335.393	324.457	-0.014	0.078	-0.045	0.003
-333.364	36.046	0.024	-0.027	0.025	-0.034
-331.335	-13.329	-0.106	0.063	-0.030	-0.059
-329.306	-75.163	-0.076	0.013	0.074	-0.052
-327.276	476.451	0.012	-0.094	-0.020	-0.025
-325.247	-15.703	0.071	0.041	-0.099	-0.083
-323.218	-20.821	0.023	0.012	0.009	0.034
-321.189	-50.246	0.128	-0.040	0.091	-0.020
-319.160	13.237	0.042	0.036	-0.020	0.066
-317.131	95.504	0.020	-0.037	0.037	0.068
-315.101	-34.701	0.117	0.049	-0.020	-0.188
-313.072	12.351	-0.071	0.059	0.066	0.044
-311.043	3.147	-0.112	-0.084	-0.016	0.018
-309.014	71.429	-0.037	0.057	-0.097	-0.079
-306.985	-85.977	0.082	0.011	-0.001	-0.117
-304.955	558.309	0.006	0.052	0.058	-0.009
-302.926	-11.307	0.091	0.056	-0.075	0.041
-300.897	34.710	0.080	0.088	-0.075	-0.030
-298.868	24.083	0.065	0.063	-0.055	-0.007
-296.839	-88.123	-0.037	-0.004	-0.103	0.011
-294.809	-27.208	0.115	-0.055	0.072	-0.008
-292.780	140.599	0.013	-0.034	-0.018	-0.176
-290.751	107.390	0.053	0.109	0.041	0.130
-288.722	-57.760	-0.070	0.018	-0.019	0.216
-286.693	-71.241	0.074	0.014	0.017	-0.110
-284.664	100.360	-0.071	0.139	-0.061	0.029
-282.634	528.264	0.007	-0.062	-0.002	-0.073
-280.605	-59.410	0.041	0.010	0.126	0.041
-278.576	-70.724	-0.171	0.033	0.136	0.074
-276.547	-109.940	-0.046	0.003	0.017	-0.115
-274.518	-46.278	0.252	0.084	-0.104	0.001
-272.488	237.232	0.024	-0.100	-0.082	-0.119
-270.459	132.939	-0.040	-0.098	0.199	0.002
-268.430	-9.556	-0.070	0.043	-0.024	-0.064
-266.401	-49.847	-0.032	0.010	0.072	-0.200
-264.372	-75.179	-0.050	-0.009	-0.022	0.042
-262.342	523.009	-0.006	-0.051	0.030	0.017
-260.313	-200.000	-0.003	0.138	-0.007	0.072
-258.284	44.487	0.098	-0.118	0.031	0.111
-256.255	-52.436	-0.143	-0.042	0.033	0.064
-254.226	76.159	-0.045	0.072	-0.002	-0.058
-252.196	186.187	0.030	-0.099	0.028	0.004
-250.167	62.448	-0.057	-0.082	-0.082	0.129
-248.138	294.159	-0.029	-0.143	-0.086	0.035
-246.109	-89.071	0.133	-0.016	-0.076	0.027
-244.080	33.394	-0.056	0.060	0.109	-0.013
-242.051	180.502	-0.029	0.093	-0.089	-0.102
-240.021	244.803	0.023	0.097	0.012	-0.017
-237.992	37.297	-0.035	0.039	0.174	0.071
-235.963	-60.179	0.040	-0.010	0.080	-0.112
-233.934	-25.995	0.072	0.035	-0.026	-0.136
-231.905	681.865	-0.004	0.037	0.065	0.057
-229.875	296.967	-0.015	-0.074	-0.034	-0.003
-227.846	103.333	0.055	-0.110	0.068	-0.160
-225.817	100.039	-0.037	-0.073	0.005	0.048
-223.788	41.696	0.064	-0.075	0.145	-0.056
-221.759	369.718	0.019	-0.119	-0.126	-0.093
-219.729	109.888	-0.071	0.148	-0.019	-0.131
-217.700	-44.806	0.053	0.018	0.093	-0.065
-215.671	101.938	-0.057	-0.114	0.038	0.095
-213.642	21.025	0.029	-0.027	0.063	-0.017
-211.613	-43.108	0.195	0.069	-0.066	0.109
-209.584	109.966	-0.031	-0.066	0.000	-0.014
-207.554	-4.641	0.073	0.049	-0.064	0.130
-205.525	59.924	-0.071	0.100	-0.052	0.083
-203.496	-9.272	0.061	-0.038	0.002	0.041
-201.467	-76.769	0.109	0.018	0.088	0.031
-199.438	-40.626	-0.076	0.028	-0.021	-0.047
-197.408	85.297	0.061	0.106	0.038	-0.051
-195.379	-100.340	-0.035	-0.003	-0.042	0.034
-193.350	86.215	0.069	-0.122	-0.030	0.108
-191.321	-153.107	-0.115	0.001	-0.112	-0.068
-189.292	5.688	0.053	0.041	0.013	-0.121
-187.262	700.000	-0.014	-0.164	-0.082	-0.079
-185.233	51.015	-0.059	-0.077	0.056	-0.028
-183.204	86.586	-0.071	-0.126	0.097	0.019
-181.175	138.115	-0.069	0.172	0.021	0.036
-179.146	394.694	0.003	-0.018	0.004	0.032
-177.116	-17.548	0.102	-0.057	-0.052	0.065
-175.087	-80.752	0.054	-0.008	0.063	-0.132
-173.058	-90.881	0.115	-0.013	0.161	0.072
-171.029	477.971	-0.003	0.020	-0.063	0.058
-169.000	38.295	0.102	-0.115	-0.038	-0.038
-166.971	-29.167	0.075	-0.035	-0.015	-0.028
-164.941	22.794	-0.098	0.093	0.006	-0.004
-162.912	4.606	0.090	0.069	0.064	0.131
-160.883	77.590	0.095	0.155	0.000	-0.107
-158.854	77.365	-0.030	0.049	-0.161	0.038
-156.825	-21.207	-0.121	-0.063	-0.148	-0.019
-154.795	700.000	-0.009	0.107	-0.004	0.169
-152.766	-81.834	0.190	-0.027	-0.022	-0.067
-150.737	18.465	0.049	-0.045	0.096	-0.074
-148.708	40.649	0.119	-0.139	-0.051	-0.090
-146.679	-29.406	-0.108	-0.049	-0.049	-0.011
-144.649	32.599	0.077	-0.082	0.117	0.090
-142.620	-61.421	-0.036	-0.009	0.003	-0.006
-140.591	43.260	0.073	0.087	-0.101	0.021
-138.562	66.172	-0.034	0.051	-0.111	0.077
-136.533	-90.323	0.183	-0.021	-0.100	-0.020
-134.503	13.538	-0.085	0.072	-0.008	-0.015
-132.474	-23.783	0.201	-0.101	0.049	-0.027
-130.445	242.728	-0.038	-0.157	0.001	-0.094
-128.416	18.979	0.057	-0.052	-0.022	-0.058
-126.387	6.864	0.092	0.073	-0.012	0.040
-124.358	-72.439	0.075	-0.014	0.044	-0.081
-122.328	193.919	-0.025	-0.085	-0.085	-0.038
-120.299	-200.000	0.001	-0.168	-0.032	0.021
-118.270	-75.401	0.057	-0.010	-0.109	-0.020
-116.241	45.554	-0.038	0.046	0.023	-0.002
-114.212	-42.981	0.064	-0.023	0.087	-0.030
-112.182	132.430	-0.021	0.050	0.051	-0.101
-110.153	85.842	0.047	-0.082	0.096	0.045
-108.124	-48.596	0.076	-0.024	0.098	0.125
-106.095	-51.942	-0.127	0.038	0.240	0.053
-104.066	-46.292	0.133	-0.045	-0.056	0.046
-102.036	42.621	-0.055	0.065	-0.115	0.053
-100.007	17.050	-0.063	-0.041	-0.107	0.036
-97.978	700.000	-0.004	0.033	0.151	0.031
-95.949	-79.625	0.190	0.024	-0.051	0.026
-93.920	81.752	0.110	-0.133	0.049	0.039
-91.891	-12.800	0.043	0.018	-0.048	0.064
-89.861	-88.573	-0.084	-0.009	-0.066	0.016
-87.832	-4.559	-0.050	-0.030	-0.020	-0.020
-85.803	-12.206	-0.046	0.024	0.010	-0.076
-83.774	100.716	0.045	0.066	0.180	-0.036
-81.745	83.459	-0.058	-0.083	0.204	-0.083
-79.715	37.781	0.088	-0.079	-0.128	-0.079
-77.686	90.536	-0.045	-0.066	-0.099	-0.055
-75.657	-108.338	0.149	0.006	0.047	0.107
-73.628	-200.000	-0.006	-0.142	-0.074	-0.009
-71.599	188.891	0.046	-0.136	0.123	-0.117
-69.569	277.810	-0.009	-0.037	0.086	0.003
-67.540	64.733	0.016	0.018	-0.053	0.054
-65.511	498.649	0.004	-0.029	-0.096	-0.132
-63.482	700.000	0.019	0.251	-0.034	0.014
-61.453	641.030	0.342	-3.057	0.269	-3.289
-59.423	86.835	-0.968	1.625	-1.008	1.593
-57.394	-47.052	-0.438	0.148	-0.321	0.244
-55.365	185.772	-13.579	-36.542	-13.147	-35.924
-53.336	700.000	98.822	906.522	96.061	889.245
-51.307	135.582	2350.666	3463.288	2353.336	3465.116
-49.278	60.574	1876.038	2137.957	1881.498	2148.831
-47.248	60.110	1761.507	2247.383	1760.183	2242.137
-45.219	71.955	1770.935	1966.967	1762.323	1959.845
-43.190	65.166	1736.025	1892.997	1726.517	1884.595
-41.161	39.103	1731.382	1885.667	1723.857	1879.076
-39.132	44.351	1729.688	1882.781	1722.698	1877.627
-37.102	60.043	1725.091	1877.388	1719.818	1874.009
-35.073	30.889	1722.777	1876.105	1717.504	1871.845
-33.044	46.264	1719.893	1872.003	1713.910	1866.729
-31.015	27.071	1717.443	1869.335	1708.883	1862.083
-28.986	43.745	1715.062	1865.471	1708.036	1860.477
-26.956	98.357	1711.712	1862.430	1706.874	1858.238
-24.927	90.348	1709.288	1857.814	1705.471	1856.104
-22.898	88.007	1706.682	1855.329	1702.622	1852.532
-20.869	18.778	1705.982	1854.141	1698.667	1847.881
-18.840	-52.515	1702.846	1850.749	1695.708	1845.033
-16.810	-32.183	1700.950	1847.747	1694.709	1842.414
-14.781	39.960	1698.685	1845.815	1692.488	1840.108
-12.752	-29.082	1696.327	1843.467	1690.822	1838.220
-10.723	46.699	1692.821	1838.760	1687.636	1834.060
-8.694	34.258	1691.476	1837.631	1686.551	1833.425
-6.665	32.229	1689.345	1835.000	1683.846	1831.376
-4.635	38.494	1686.723	1831.285	1683.828	1831.347
-2.606	38.417	1685.257	1828.501	1682.519	1828.814
-0.577	38.424	1682.784	1825.404	1679.730	1826.432
1.452	37.249	1646.847	1765.038	1667.024	1800.908
3.481	33.801	1375.274	1420.206	1418.613	1460.947
5.511	34.076	1253.442	1298.072	1113.005	1147.345
7.540	33.933	1234.752	1277.333	1084.635	1121.541
9.569	33.825	1217.801	1257.987	1058.342	1091.974
11.598	33.828	1213.124	1252.853	1051.629	1085.245
13.627	33.838	1210.609	1249.813	1050.688	1084.207
15.657	33.931	1212.284	1252.337	1052.208	1085.909
17.686	33.823	1210.166	1248.200	1049.481	1082.068
19.715	33.890	1208.254	1246.998	1048.561	1081.327
21.744	33.815	1205.918	1243.313	1048.537	1080.429
23.773	33.820	1199.777	1237.524	1044.839	1076.842
25.802	33.855	1197.292	1234.697	1041.923	1074.574
27.832	33.813	1193.695	1230.833	1039.591	1070.203
29.861	33.424	1186.979	1217.507	1035.790	1046.516
31.890	25.521	1166.409	1094.944	1009.130	921.808
33.919	22.326	1147.120	1039.738	998.117	895.068
35.948	22.208	1142.962	1031.581	991.422	883.948
37.978	20.805	1137.352	1019.966	993.309	885.268
40.007	18.896	1129.451	1012.613	990.234	879.722
42.036	19.613	1130.437	1014.335	988.019	878.264
44.065	18.214	1130.508	1013.421	989.146	879.475
46.094	17.664	1127.922	1012.655	987.251	878.921
48.124	17.659	1128.547	1012.263	985.926	877.136
50.153	17.587	1125.738	1008.723	985.689	877.167
52.182	17.519	1121.661	1004.709	983.881	875.546
54.211	17.534	1119.432	1002.542	983.116	880.788
56.240	18.138	1120.259	1011.087	1002.322	987.862
58.270	26.409	1139.521	1131.300	1013.030	1039.000
60.299	29.548	1148.343	1180.273	1013.260	1053.000
62.328	30.615	1151.765	1198.230	1015.008	1062.048
64.357	31.193	1153.952	1208.840	1015.692	1066.842
66.386	31.128	1156.963	1216.825	1014.122	1066.186
68.415	30.858	1157.059	1218.941	1011.848	1063.555
70.445	25.753	1155.570	1216.198	1007.342	1057.564
72.474	20.715	1150.696	1208.135	1009.751	1058.626
74.503	19.683	1149.375	1207.104	1005.963	1054.567
76.532	19.663	1147.898	1204.259	1005.550	1051.175
78.561	19.042	1143.049	1193.593	1003.014	1046.748
80.591	19.220	1140.849	1192.372	1003.286	1048.997
82.620	19.411	1143.409	1195.751	1002.864	1049.345
84.649	19.516	1138.810	1192.639	1001.313	1047.813
86.678	19.438	1139.269	1191.417	1001.082	1044.513
88.707	19.384	1137.762	1188.688	998.545	1040.383
90.737	19.268	1135.899	1184.577	992.321	1029.743
92.766	19.462	1130.727	1174.497	990.685	1027.463
94.795	19.775	1129.790	1171.505	993.097	1029.570
96.824	25.339	1127.072	1169.185	992.759	1029.899
98.853	30.347	1129.019	1172.531	992.588	1031.880
100.882	32.217	1128.024	1173.570	991.724	1033.534
102.912	32.889	1126.308	1174.554	988.432	1030.851
104.941	33.373	1123.614	1173.420	985.208	1029.105
106.970	33.603	1124.163	1174.892	985.862	1031.476
108.999	33.786	1122.132	1173.394	987.132	1028.298
111.028	33.271	1121.584	1168.095	985.391	1025.121
113.058	33.055	1121.907	1168.119	982.687	1025.377
115.087	33.315	1121.466	1170.426	982.004	1024.991
117.116	33.150	1119.503	1169.134	981.105	1024.552
119.145	33.052	1116.447	1166.291	977.777	1020.508
121.174	33.330	1112.729	1164.518	975.955	1018.081
123.204	33.347	1113.608	1164.245	977.747	1019.683
125.233	33.216	1112.635	1161.661	975.100	1018.091
127.262	33.248	1115.560	1166.589	972.590	1015.729
129.291	33.116	1111.720	1161.885	974.643	1017.072
131.320	32.855	1110.547	1160.161	969.441	1011.722
133.350	32.622	1110.192	1158.250	968.404	1010.466
135.379	32.729	1104.973	1154.054	970.309	1008.793
137.408	32.443	1102.637	1146.573	965.450	1002.388
139.437	32.532	1098.993	1141.533	965.475	1004.524
141.466	32.872	1100.179	1144.153	966.117	1000.824
143.495	32.750	1100.364	1141.213	960.714	993.862
145.525	32.656	1098.852	1137.157	960.155	995.188
147.554	32.831	1095.913	1135.412	960.008	995.493
149.583	32.755	1095.270	1135.626	956.311	992.219
151.612	32.789	1091.640	1133.781	955.066	990.756
153.641	32.999	1090.731	1132.565	955.180	989.306
155.671	32.899	1091.725	1130.823	951.710	982.969
157.700	32.863	1089.196	1126.568	950.820	982.274
159.729	32.914	1088.354	1125.446	953.880	987.023
161.758	33.095	1087.244	1126.530	950.470	983.106
163.787	33.039	1085.991	1125.604	947.353	977.232
165.817	33.023	1085.842	1123.996	944.637	976.119
167.846	33.175	1083.667	1122.206	943.995	977.609
169.875	33.239	1083.633	1123.942	944.146	979.842
171.904	33.273	1080.636	1121.798	944.202	979.646
173.933	33.362	1080.442	1122.126	945.000	978.619
175.963	33.042	1079.427	1119.097	940.168	972.566
177.992	32.752	1078.397	1117.595	938.628	970.591
180.021	32.625	1076.971	1113.702	938.469	971.127
182.050	32.740	1070.653	1108.614	939.616	973.541
184.079	32.717	1070.376	1110.113	935.961	968.044
186.108	32.612	1068.507	1106.550	932.760	966.328
188.138	32.839	1066.520	1105.874	932.987	968.313
190.167	33.090	1068.785	1110.046	933.225	967.858
192.196	33.183	1067.392	1109.117	932.766	967.228
194.225	33.132	1066.007	1107.444	931.042	968.882
196.254	33.218	1067.305	1111.504	930.304	967.565
198.284	33.143	1066.195	1109.991	928.973	964.860
200.313	33.193	1064.858	1107.268	928.626	963.421
202.342	33.139	1062.996	1103.156	925.242	958.014
204.371	32.946	1058.663	1096.740	922.014	956.305
206.400	33.078	1057.794	1098.061	921.964	954.786
208.430	33.128	1060.029	1098.452	921.321	953.312
210.459	33.178	1059.063	1096.642	920.757	952.023
212.488	33.216	1055.471	1092.300	918.064	948.003
214.517	33.075	1052.881	1089.401	917.750	947.494
216.546	32.998	1050.203	1086.201	916.787	945.482
218.575	32.866	1048.485	1082.280	918.006	946.545
220.605	32.845	1050.502	1084.913	915.422	944.794
222.634	32.998	1051.136	1085.567	915.122	945.612
224.663	33.179	1046.021	1081.806	914.163	944.810
226.692	33.157	1044.380	1080.193	914.710	943.171
228.721	33.202	1044.247	1078.656	910.895	938.234
230.751	33.254	1043.024	1076.987	907.609	938.878
232.780	33.574	1043.671	1080.677	909.242	938.123
234.809	33.583	1041.844	1076.190	905.657	934.652
236.838	33.738	1039.294	1074.535	905.402	934.867
238.867	33.585	1038.635	1073.369	904.979	935.330
240.897	33.536	1040.177	1075.253	904.360	931.186
242.926	33.224	1036.725	1069.141	900.734	924.362
244.955	32.917	1032.933	1061.172	899.954	925.762
246.984	33.062	1033.108	1063.360	900.073	926.344
249.013	33.093	1027.345	1057.905	898.683	925.643
251.043	33.322	1030.379	1063.519	895.512	921.798
253.072	33.036	1030.064	1060.483	895.471	923.576
255.101	33.233	1027.476	1060.660	896.141	923.899
