DTS Sentinel unit serial number:	SN409016Multiplexer serial number:	ORYXHardware model number:	OX4-SRSoftware version number:	ORYX F/W v4,00 Oryx Data Collector v3.7.3data status	okinstallation	mike1234differential loss correction	combinedforward channel	channel 1reverse channel	channel 1 reversedate	2020/03/06time	18:33:46forward acquisition time	60,00reverse acquisition time	60,00gamma	499,5406k internal	0,2556k external	0,2556temperature offset calibration	1,0000default loss term (dB/km)	0,3750temperature slope calibration	0,0000multiplexer offset coefficient	1,0000multiplexer slope coefficient	1,0000fibre end	0,00T internal ref (°C)	16,80T ext. ref 1 (°C)	6,66T ext. ref 2 (°C)	6,62length (m)	temperature (°C)	forward Stokes	forward anti-Stokes	reverse Stokes	reverse anti-Stokes-746,700	141,683	0,015	-0,022	1447,518	1404,505
-745,685	203,032	-0,042	0,082	1447,518	1404,505
-744,671	193,975	-0,129	-0,239	1447,518	1404,505
-743,656	389,370	0,049	0,170	1447,518	1404,505
-742,642	-98,716	0,094	0,005	1447,518	1404,505
-741,627	151,920	0,081	0,122	1447,518	1404,505
-740,612	35,435	0,037	-0,023	1447,518	1404,505
-739,598	122,356	-0,142	-0,179	1447,518	1404,505
-738,583	224,499	-0,052	0,109	1447,518	1404,505
-737,569	35,119	-0,159	0,098	1447,518	1404,505
-736,554	-38,339	0,110	-0,025	1447,518	1404,505
-735,539	-51,336	-0,140	0,024	1447,518	1404,505
-734,525	179,281	0,351	-0,608	1447,518	1404,505
-733,510	800,000	-0,064	0,406	1447,518	1404,505
-732,496	800,000	-0,017	0,153	1447,518	1404,505
-731,481	58,658	-0,173	0,135	1447,518	1404,505
-730,466	-200,000	0,000	0,016	1447,518	1404,505
-729,452	196,536	-0,129	-0,242	1447,518	1404,505
-728,437	-8,641	-0,223	-0,081	1447,518	1404,505
-727,423	-200,000	-0,006	-0,311	1447,518	1404,505
-726,408	59,843	-0,362	-0,285	1447,518	1404,505
-725,394	263,353	-0,035	0,085	1447,518	1404,505
-724,379	104,715	0,066	0,074	1447,518	1404,505
-723,364	208,103	-0,147	-0,292	1447,518	1404,505
-722,350	-61,922	0,240	-0,033	1447,518	1404,505
-721,335	24,138	-0,247	0,135	1447,518	1404,505
-720,321	98,367	-0,068	-0,073	1447,518	1404,505
-719,306	39,259	0,054	-0,035	1447,518	1404,505
-718,291	-50,635	-0,108	-0,019	1447,518	1404,505
-717,277	-33,525	0,386	0,094	1447,518	1404,505
-716,262	-140,102	-0,122	0,001	1447,518	1404,505
-715,248	162,413	0,111	-0,176	1447,518	1404,505
-714,233	23,387	0,564	0,306	1447,518	1404,505
-713,218	-112,087	0,338	0,011	1447,518	1404,505
-712,204	-37,289	0,324	0,074	1447,518	1404,505
-711,189	36,505	-0,137	0,085	1447,518	1404,505
-710,175	181,812	-0,063	-0,111	1447,518	1404,505
-709,160	279,699	0,044	-0,115	1447,518	1404,505
-708,145	234,472	-0,046	0,101	1447,518	1404,505
-707,131	363,269	0,137	-0,449	1447,518	1404,505
-706,116	169,351	-0,077	-0,126	1447,518	1404,505
-705,102	-32,428	-0,196	0,049	1447,518	1404,505
-704,087	195,204	-0,122	0,228	1447,518	1404,505
-703,072	184,846	-0,064	0,114	1447,518	1404,505
-702,058	282,926	-0,164	-0,428	1447,518	1404,505
-701,043	-51,302	0,184	-0,032	1447,518	1404,505
-700,029	537,457	-0,104	-0,479	1447,518	1404,505
-699,014	204,747	0,098	-0,191	1447,518	1404,505
-697,999	611,574	0,027	-0,136	1447,518	1404,505
-696,985	188,906	0,130	-0,236	1447,518	1404,505
-695,970	61,319	-0,089	-0,071	1447,518	1404,505
-694,956	132,785	-0,170	-0,229	1447,518	1404,505
-693,941	103,717	-0,205	-0,229	1447,518	1404,505
-692,926	-78,489	-0,315	-0,029	1447,518	1404,505
-691,912	622,277	-0,021	0,111	1447,518	1404,505
-690,897	72,464	0,062	-0,054	1447,518	1404,505
-689,883	-33,331	0,219	-0,054	1447,518	1404,505
-688,868	800,000	0,032	-0,261	1447,518	1404,505
-687,854	79,504	-0,124	0,115	1447,518	1404,505
-686,839	110,468	0,055	-0,064	1447,518	1404,505
-685,824	369,165	0,013	-0,042	1447,518	1404,505
-684,810	-127,523	0,047	-0,001	1447,518	1404,505
-683,795	88,035	0,085	0,084	1447,518	1404,505
-682,781	-59,173	0,185	0,027	1447,518	1404,505
-681,766	-49,933	0,211	-0,038	1447,518	1404,505
-680,751	-3,410	0,104	-0,040	1447,518	1404,505
-679,737	541,955	-0,038	-0,177	1447,518	1404,505
-678,722	72,399	0,221	-0,194	1447,518	1404,505
-677,708	335,894	-0,078	-0,239	1447,518	1404,505
-676,693	45,405	0,108	0,074	1447,518	1404,505
-675,678	-200,000	-0,006	0,330	1447,518	1404,505
-674,664	339,979	-0,116	0,360	1447,518	1404,505
-673,649	-200,000	-0,018	0,302	1447,518	1404,505
-672,635	176,515	0,074	-0,127	1447,518	1404,505
-671,620	403,648	0,008	-0,028	1447,518	1404,505
-670,605	81,425	0,096	0,090	1447,518	1404,505
-669,591	266,136	0,063	-0,156	1447,518	1404,505
-668,576	-2,872	0,355	0,139	1447,518	1404,505
-667,562	221,284	-0,108	-0,225	1447,518	1404,505
-666,547	-44,252	0,112	0,022	1447,518	1404,505
-665,532	48,598	0,024	-0,017	1447,518	1404,505
-664,518	35,644	0,084	0,052	1447,518	1404,505
-663,503	-89,148	0,116	0,008	1447,518	1404,505
-662,489	398,487	-0,061	-0,216	1447,518	1404,505
-661,474	144,652	-0,129	-0,186	1447,518	1404,505
-660,459	60,774	-0,196	0,155	1447,518	1404,505
-659,445	194,551	0,040	-0,075	1447,518	1404,505
-658,430	-66,124	0,213	-0,027	1447,518	1404,505
-657,416	550,792	-0,114	-0,536	1447,518	1404,505
-656,401	46,945	-0,052	0,036	1447,518	1404,505
-655,386	525,754	0,051	0,231	1447,518	1404,505
-654,372	108,399	-0,314	0,361	1447,518	1404,505
-653,357	40,549	-0,121	-0,079	1447,518	1404,505
-652,343	184,019	0,142	-0,251	1447,518	1404,505
-651,328	99,648	-0,252	-0,272	1447,518	1404,505
-650,314	109,667	-0,251	-0,291	1447,518	1404,505
-649,299	407,180	-0,046	0,166	1447,518	1404,505
-648,284	108,805	-0,186	0,215	1447,518	1404,505
-647,270	88,871	-0,135	-0,135	1447,518	1404,505
-646,255	115,978	0,153	0,185	1447,518	1404,505
-645,241	196,847	0,145	-0,274	1447,518	1404,505
-644,226	-200,000	0,004	-0,155	1447,518	1404,505
-643,211	489,993	0,043	0,182	1447,518	1404,505
-642,197	36,432	0,114	0,071	1447,518	1404,505
-641,182	459,342	-0,036	0,145	1447,518	1404,505
-640,168	52,892	-0,237	0,175	1447,518	1404,505
-639,153	154,355	0,181	-0,276	1447,518	1404,505
-638,138	249,581	-0,097	-0,226	1447,518	1404,505
-637,124	48,371	-0,383	-0,270	1447,518	1404,505
-636,109	138,583	0,053	0,074	1447,518	1404,505
-635,095	17,526	-0,134	-0,068	1447,518	1404,505
-634,080	-12,833	0,155	-0,053	1447,518	1404,505
-633,065	-21,170	-0,326	-0,098	1447,518	1404,505
-632,051	-42,608	-0,291	0,060	1447,518	1404,505
-631,036	-42,889	0,529	0,109	1447,518	1404,505
-630,022	48,889	0,082	0,058	1447,518	1404,505
-629,007	305,093	-0,143	0,400	1447,518	1404,505
-627,992	87,027	-0,118	0,116	1447,518	1404,505
-626,978	330,412	-0,128	-0,385	1447,518	1404,505
-625,963	193,628	-0,146	-0,270	1447,518	1404,505
-624,949	800,000	0,060	-0,434	1447,518	1404,505
-623,934	-117,936	0,072	0,002	1447,518	1404,505
-622,919	-19,338	-0,233	0,072	1447,518	1404,505
-621,905	226,342	-0,061	0,129	1447,518	1404,505
-620,890	273,222	0,069	0,175	1447,518	1404,505
-619,876	324,250	0,022	-0,065	1447,518	1404,505
-618,861	39,768	0,093	0,060	1447,518	1404,505
-617,846	-82,678	-0,298	-0,025	1447,518	1404,505
-616,832	71,594	0,056	-0,048	1447,518	1404,505
-615,817	36,637	0,178	-0,112	1447,518	1404,505
-614,803	-39,343	-0,243	-0,053	1447,518	1404,505
-613,788	648,294	0,041	0,220	1447,518	1404,505
-612,773	800,000	-0,002	0,022	1447,518	1404,505
-611,759	800,000	-0,022	0,281	1447,518	1404,505
-610,744	-28,043	0,019	0,005	1447,518	1404,505
-609,730	45,092	-0,101	0,069	1447,518	1404,505
-608,715	-35,265	-0,111	-0,026	1447,518	1404,505
-607,701	-56,259	0,143	0,023	1447,518	1404,505
-606,686	-200,000	0,026	0,600	1447,518	1404,505
-605,671	-4,215	-0,227	0,087	1447,518	1404,505
-604,657	-99,898	-0,245	-0,012	1447,518	1404,505
-603,642	480,851	0,020	0,084	1447,518	1404,505
-602,628	214,302	-0,077	-0,156	1447,518	1404,505
-601,613	285,479	0,109	0,287	1447,518	1404,505
-600,598	9,949	-0,264	0,122	1447,518	1404,505
-599,584	118,648	0,294	-0,362	1447,518	1404,505
-598,569	800,000	0,022	0,190	1447,518	1404,505
-597,555	538,619	0,084	0,387	1447,518	1404,505
-596,540	-82,159	0,117	0,010	1447,518	1404,505
-595,525	-10,454	-0,060	-0,021	1447,518	1404,505
-594,511	127,497	-0,227	-0,296	1447,518	1404,505
-593,496	800,000	0,020	0,244	1447,518	1404,505
-592,482	373,783	-0,077	0,259	1447,518	1404,505
-591,467	179,247	-0,090	0,156	1447,518	1404,505
-590,452	576,248	0,028	0,137	1447,518	1404,505
-589,438	692,350	0,025	0,141	1447,518	1404,505
-588,423	638,039	-0,038	0,198	1447,518	1404,505
-587,409	-123,746	0,085	0,002	1447,518	1404,505
-586,394	-200,000	-0,013	-0,313	1447,518	1404,505
-585,379	137,940	-0,157	-0,218	1447,518	1404,505
-584,365	-54,180	-0,149	-0,025	1447,518	1404,505
-583,350	-5,517	-0,179	-0,068	1447,518	1404,505
-582,336	14,261	0,037	0,018	1447,518	1404,505
-581,321	10,134	-0,100	0,046	1447,518	1404,505
-580,306	85,064	-0,226	-0,219	1447,518	1404,505
-579,292	281,915	-0,118	-0,309	1447,518	1404,505
-578,277	263,993	-0,039	-0,096	1447,518	1404,505
-577,263	80,348	0,258	-0,241	1447,518	1404,505
-576,248	-113,285	0,624	0,019	1447,518	1404,505
-575,233	73,149	0,112	0,099	1447,518	1404,505
-574,219	75,994	-0,096	0,086	1447,518	1404,505
-573,204	25,140	-0,112	0,062	1447,518	1404,505
-572,190	421,757	0,065	0,243	1447,518	1404,505
-571,175	66,332	-0,179	-0,149	1447,518	1404,505
-570,161	546,483	-0,055	-0,258	1447,518	1404,505
-569,146	162,808	-0,246	0,393	1447,518	1404,505
-568,131	159,916	-0,066	0,104	1447,518	1404,505
-567,117	198,546	0,077	0,146	1447,518	1404,505
-566,102	800,000	-0,022	0,162	1447,518	1404,505
-565,088	13,271	0,200	-0,096	1447,518	1404,505
-564,073	47,180	0,161	0,113	1447,518	1404,505
-563,058	-25,549	0,173	-0,048	1447,518	1404,505
-562,044	194,576	-0,050	0,092	1447,518	1404,505
-561,029	440,021	-0,086	-0,333	1447,518	1404,505
-560,015	800,000	0,046	-0,385	1447,518	1404,505
-559,000	721,950	-0,024	0,140	1447,518	1404,505
-557,985	-34,401	0,336	-0,081	1447,518	1404,505
-556,971	130,577	0,178	0,237	1447,518	1404,505
-555,956	-43,900	0,038	-0,008	1447,518	1404,505
-554,942	42,677	-0,158	-0,105	1447,518	1404,505
-553,927	250,998	-0,048	0,113	1447,518	1404,505
-552,912	21,137	-0,027	0,014	1447,518	1404,505
-551,898	42,346	-0,174	0,116	1447,518	1404,505
-550,883	226,356	-0,052	0,111	1447,518	1404,505
-549,869	227,613	-0,044	-0,095	1447,518	1404,505
-548,854	364,041	0,074	0,244	1447,518	1404,505
-547,839	223,983	0,060	0,128	1447,518	1404,505
-546,825	241,214	-0,115	-0,259	1447,518	1404,505
-545,810	-53,787	0,325	0,054	1447,518	1404,505
-544,796	82,350	-0,173	0,164	1447,518	1404,505
-543,781	39,063	-0,224	-0,144	1447,518	1404,505
-542,766	-200,000	-0,009	0,423	1447,518	1404,505
-541,752	667,565	0,038	0,205	1447,518	1404,505
-540,737	-32,094	0,243	-0,061	1447,518	1404,505
-539,723	172,320	-0,047	-0,079	1447,518	1404,505
-538,708	228,354	-0,022	-0,047	1447,518	1404,505
-537,693	-6,616	-0,273	-0,101	1447,518	1404,505
-536,679	518,154	-0,058	0,258	1447,518	1404,505
-535,664	36,785	0,300	0,189	1447,518	1404,505
-534,650	-32,748	-0,267	0,066	1447,518	1404,505
-533,635	256,706	-0,088	0,211	1447,518	1404,505
-532,621	-29,506	0,364	-0,095	1447,518	1404,505
-531,606	18,484	-0,113	-0,058	1447,518	1404,505
-530,591	39,213	-0,131	0,084	1447,518	1404,505
-529,577	116,683	-0,200	0,243	1447,518	1404,505
-528,562	-7,993	0,328	0,120	1447,518	1404,505
-527,548	54,595	-0,189	-0,141	1447,518	1404,505
-526,533	164,943	0,099	0,159	1447,518	1404,505
-525,518	34,904	-0,218	0,134	1447,518	1404,505
-524,504	-82,167	0,171	-0,014	1447,518	1404,505
-523,489	68,333	0,063	-0,053	1447,518	1404,505
-522,475	54,008	-0,105	-0,078	1447,518	1404,505
-521,460	34,812	0,258	0,159	1447,518	1404,505
-520,445	86,662	-0,165	-0,162	1447,518	1404,505
-519,431	-38,422	-0,141	0,031	1447,518	1404,505
-518,416	111,327	-0,148	0,174	1447,518	1404,505
-517,402	435,711	-0,094	-0,363	1447,518	1404,505
-516,387	-62,946	0,044	0,006	1447,518	1404,505
-515,372	-200,000	-0,001	0,085	1447,518	1404,505
-514,358	270,414	-0,055	-0,139	1447,518	1404,505
-513,343	-200,000	-0,022	0,357	1447,518	1404,505
-512,329	80,252	-0,248	-0,231	1447,518	1404,505
-511,314	-14,367	-0,043	0,014	1447,518	1404,505
-510,299	266,909	0,159	-0,395	1447,518	1404,505
-509,285	-45,874	-0,122	0,024	1447,518	1404,505
-508,270	101,503	0,116	-0,127	1447,518	1404,505
-507,256	800,000	0,036	0,256	1447,518	1404,505
-506,241	-48,048	-0,151	0,028	1447,518	1404,505
-505,226	112,710	0,297	-0,352	1447,518	1404,505
-504,212	37,386	-0,265	-0,168	1447,518	1404,505
-503,197	-200,000	0,010	-0,289	1447,518	1404,505
-502,183	800,000	-0,009	-0,124	1447,518	1404,505
-501,168	458,776	0,089	-0,357	1447,518	1404,505
-500,153	17,152	-0,145	0,073	1447,518	1404,505
-499,139	-8,141	0,244	-0,089	1447,518	1404,505
-498,124	302,844	0,074	-0,206	1447,518	1404,505
-497,110	71,758	0,139	-0,121	1447,518	1404,505
-496,095	10,003	-0,126	-0,058	1447,518	1404,505
-495,081	148,265	-0,089	-0,131	1447,518	1404,505
-494,066	-28,039	0,165	0,044	1447,518	1404,505
-493,051	199,973	-0,041	0,079	1447,518	1404,505
-492,037	119,912	-0,130	0,161	1447,518	1404,505
-491,022	-47,295	-0,382	0,072	1447,518	1404,505
-490,008	13,293	0,121	-0,058	1447,518	1404,505
-488,993	-27,430	-0,222	-0,060	1447,518	1404,505
-487,978	247,802	0,118	-0,273	1447,518	1404,505
-486,964	47,168	0,222	0,155	1447,518	1404,505
-485,949	345,167	-0,045	0,141	1447,518	1404,505
-484,935	75,949	-0,218	-0,197	1447,518	1404,505
-483,920	-16,118	0,198	-0,064	1447,518	1404,505
-482,905	110,226	0,131	-0,153	1447,518	1404,505
-481,891	43,917	0,373	-0,252	1447,518	1404,505
-480,876	-165,877	0,134	0,000	1447,518	1404,505
-479,862	-88,574	0,069	0,005	1447,518	1404,505
-478,847	73,622	0,091	0,080	1447,518	1404,505
-477,832	128,459	0,182	-0,239	1447,518	1404,505
-476,818	54,566	-0,098	-0,074	1447,518	1404,505
-475,803	172,036	-0,049	0,083	1447,518	1404,505
-474,789	242,844	0,050	-0,114	1447,518	1404,505
-473,774	-200,000	0,003	-0,113	1447,518	1404,505
-472,759	275,110	0,092	-0,234	1447,518	1404,505
-471,745	160,702	0,042	0,067	1447,518	1404,505
-470,730	800,000	-0,015	-0,117	1447,518	1404,505
-469,716	348,121	-0,111	-0,351	1447,518	1404,505
-468,701	-149,497	-0,169	-0,001	1447,518	1404,505
-467,686	164,809	0,021	0,034	1447,518	1404,505
-466,672	204,725	0,103	-0,202	1447,518	1404,505
-465,657	303,881	0,023	0,065	1447,518	1404,505
-464,643	186,565	-0,064	0,115	1447,518	1404,505
-463,628	18,489	0,153	0,079	1447,518	1404,505
-462,613	521,322	-0,031	-0,137	1447,518	1404,505
-461,599	-4,167	-0,057	-0,022	1447,518	1404,505
-460,584	9,691	0,392	-0,181	1447,518	1404,505
-459,570	-200,000	0,005	0,347	1447,518	1404,505
-458,555	152,745	0,138	0,209	1447,518	1404,505
-457,540	172,987	-0,233	0,391	1447,518	1404,505
-456,526	440,623	0,043	0,166	1447,518	1404,505
-455,511	220,931	-0,020	-0,041	1447,518	1404,505
-454,497	152,979	-0,159	-0,240	1447,518	1404,505
-453,482	800,000	0,030	0,229	1447,518	1404,505
-452,468	12,045	0,231	-0,110	1447,518	1404,505
-451,453	508,013	0,099	-0,434	1447,518	1404,505
-450,438	89,674	0,138	0,139	1447,518	1404,505
-449,424	294,224	0,001	-0,004	1447,518	1404,505
-448,409	-200,000	0,000	-0,173	1447,518	1404,505
-447,395	270,602	0,128	-0,321	1447,518	1404,505
-446,380	25,958	-0,270	0,151	1447,518	1404,505
-445,365	145,929	0,044	0,064	1447,518	1404,505
-444,351	-85,465	-0,185	0,014	1447,518	1404,505
-443,336	211,324	0,073	-0,147	1447,518	1404,505
-442,322	-101,684	0,234	0,011	1447,518	1404,505
-441,307	-37,102	0,285	-0,065	1447,518	1404,505
-440,292	142,540	-0,062	-0,089	1447,518	1404,505
-439,278	6,299	-0,147	-0,065	1447,518	1404,505
-438,263	-121,797	0,282	-0,006	1447,518	1404,505
-437,249	-95,277	-0,289	0,017	1447,518	1404,505
-436,234	24,640	0,359	0,197	1447,518	1404,505
-435,219	326,533	0,074	-0,221	1447,518	1404,505
-434,205	-105,026	-0,387	-0,016	1447,518	1404,505
-433,190	22,108	0,171	0,091	1447,518	1404,505
-432,176	800,000	-0,003	0,038	1447,518	1404,505
-431,161	96,489	-0,166	-0,175	1447,518	1404,505
-430,146	800,000	0,032	0,267	1447,518	1404,505
-429,132	192,178	0,191	0,352	1447,518	1404,505
-428,117	337,000	0,092	0,281	1447,518	1404,505
-427,103	85,663	0,219	0,214	1447,518	1404,505
-426,088	576,639	-0,040	-0,195	1447,518	1404,505
-425,073	263,843	-0,015	-0,037	1447,518	1404,505
-424,059	-2,097	0,245	-0,097	1447,518	1404,505
-423,044	336,772	0,092	0,281	1447,518	1404,505
-422,030	0,530	0,181	-0,074	1447,518	1404,505
-421,015	-30,406	-0,388	0,100	1447,518	1404,505
-420,000	242,301	-0,083	-0,189	1447,518	1404,505
-418,986	-200,000	-0,003	0,073	1447,518	1404,505
-417,971	299,502	-0,052	-0,143	1447,518	1404,505
-416,957	-24,394	-0,264	0,075	1447,518	1404,505
-415,942	800,000	-0,033	0,272	1447,518	1404,505
-414,928	102,086	-0,283	0,311	1447,518	1404,505
-413,913	122,138	-0,045	0,056	1447,518	1404,505
-412,898	-70,117	-0,505	0,058	1447,518	1404,505
-411,884	108,587	0,250	0,288	1447,518	1404,505
-410,869	201,282	-0,130	0,250	1447,518	1404,505
-409,855	800,000	0,009	-0,131	1447,518	1404,505
-408,840	213,427	-0,135	0,273	1447,518	1404,505
-407,825	1,874	-0,345	-0,144	1447,518	1404,505
-406,811	-200,000	0,002	-0,249	1447,518	1404,505
-405,796	73,628	0,023	0,021	1447,518	1404,505
-404,782	82,518	0,138	0,131	1447,518	1404,505
-403,767	178,161	0,055	0,095	1447,518	1404,505
-402,752	800,000	-0,009	-0,107	1447,518	1404,505
-401,738	83,754	-0,175	0,168	1447,518	1404,505
-400,723	257,943	0,116	-0,278	1447,518	1404,505
-399,709	-62,068	-0,248	0,034	1447,518	1404,505
-398,694	188,041	-0,255	-0,461	1447,518	1404,505
-397,679	-200,000	-0,006	-0,262	1447,518	1404,505
-396,665	16,011	-0,095	-0,048	1447,518	1404,505
-395,650	59,163	0,233	-0,181	1447,518	1404,505
-394,636	133,567	-0,048	0,065	1447,518	1404,505
-393,621	800,000	0,024	0,262	1447,518	1404,505
-392,606	277,536	0,085	0,219	1447,518	1404,505
-391,592	2,507	0,209	-0,088	1447,518	1404,505
-390,577	-82,437	-0,245	-0,020	1447,518	1404,505
-389,563	-31,061	0,170	-0,043	1447,518	1404,505
-388,548	197,292	0,094	0,177	1447,518	1404,505
-387,533	-109,277	0,258	0,009	1447,518	1404,505
-386,519	177,717	-0,113	0,194	1447,518	1404,505
-385,504	174,879	-0,253	-0,428	1447,518	1404,505
-384,490	203,271	0,134	-0,259	1447,518	1404,505
-383,475	40,257	-0,417	0,271	1447,518	1404,505
-382,460	456,513	-0,074	0,299	1447,518	1404,505
-381,446	-16,275	-0,317	0,102	1447,518	1404,505
-380,431	-8,871	-0,102	-0,037	1447,518	1404,505
-379,417	119,522	0,064	0,079	1447,518	1404,505
-378,402	179,161	0,044	-0,076	1447,518	1404,505
-377,388	43,330	0,086	0,058	1447,518	1404,505
-376,373	215,282	0,172	-0,350	1447,518	1404,505
-375,358	-17,624	0,084	0,027	1447,518	1404,505
-374,344	192,941	-0,093	0,172	1447,518	1404,505
-373,329	171,152	0,130	0,216	1447,518	1404,505
-372,315	800,000	-0,008	0,110	1447,518	1404,505
-371,300	261,360	0,104	0,254	1447,518	1404,505
-370,285	-44,635	0,256	0,051	1447,518	1404,505
-369,271	339,778	-0,095	0,293	1447,518	1404,505
-368,256	32,069	-0,099	-0,059	1447,518	1404,505
-367,242	171,654	0,056	-0,094	1447,518	1404,505
-366,227	496,867	-0,061	0,263	1447,518	1404,505
-365,212	-26,986	0,323	0,088	1447,518	1404,505
-364,198	25,610	-0,181	0,101	1447,518	1404,505
-363,183	-24,728	0,133	0,038	1447,518	1404,505
-362,169	165,646	0,121	0,195	1447,518	1404,505
-361,154	431,955	0,062	-0,236	1447,518	1404,505
-360,139	-37,331	-0,370	0,084	1447,518	1404,505
-359,125	-88,257	0,382	0,027	1447,518	1404,505
-358,110	508,379	-0,082	0,361	1447,518	1404,505
-357,096	42,274	-0,316	0,210	1447,518	1404,505
-356,081	126,474	0,068	-0,088	1447,518	1404,505
-355,066	-23,416	-0,173	0,050	1447,518	1404,505
-354,052	-136,866	0,160	-0,002	1447,518	1404,505
-353,037	800,000	0,049	-0,375	1447,518	1404,505
-352,023	86,364	0,142	0,139	1447,518	1404,505
-351,008	11,940	0,141	0,067	1447,518	1404,505
-349,993	150,302	-0,114	0,170	1447,518	1404,505
-348,979	234,073	-0,129	0,283	1447,518	1404,505
