DTS Sentinel unit serial number:	SN307009Multiplexer serial number:	multiplexer serial numberHardware model number:	HL4Software version number:	Halo DTS v1.0data status	okinstallation	NYAN30AUG2019differential loss correction	combinedforward channel	channel 1reverse channel	channel 1 reversedate	2003/01/11time	03:10:09forward acquisition time	60.05reverse acquisition time	60.06gamma	510.3900k internal	0.1898k external	0.1898temperature offset calibration	1.0000default loss term (dB/km)	0.3938temperature slope calibration	NaNmultiplexer offset coefficient	1.0000multiplexer slope coefficient	1.0000fibre end	1298.10T internal ref (°C)	34.31T ext. ref 1 (°C)	NaNT ext. ref 2 (°C)	NaNlength (m)	temperature (°C)	forward Stokes	forward anti-Stokes	reverse Stokes	reverse anti-Stokes-584.984	170.878	0.054	-0.088	-0.006	-0.191
-582.954	189.402	-0.012	0.022	0.025	-0.025
-580.925	90.838	-0.070	0.068	-0.015	-0.009
-578.896	36.511	-0.121	0.072	0.082	0.123
-576.867	201.625	0.056	0.104	0.045	-0.031
-574.838	79.818	0.119	0.106	-0.101	0.163
-572.808	-31.417	0.164	-0.039	0.018	0.098
-570.779	73.023	-0.200	-0.168	0.148	-0.103
-568.750	139.697	0.017	0.024	0.019	-0.016
-566.721	-96.788	0.103	0.005	-0.008	-0.071
-564.692	573.336	-0.024	-0.117	0.055	-0.005
-562.662	178.894	-0.024	0.041	0.020	0.112
-560.633	105.927	0.058	-0.063	-0.064	-0.034
-558.604	226.001	0.042	0.088	-0.007	-0.102
-556.575	295.028	0.079	0.210	0.084	0.100
-554.546	72.388	-0.080	-0.067	0.029	0.018
-552.517	78.297	-0.035	-0.031	-0.103	0.012
-550.487	700.000	0.007	-0.057	-0.223	-0.023
-548.458	-200.000	0.004	0.124	-0.102	-0.020
-546.429	355.272	0.048	-0.151	0.060	0.046
-544.400	227.463	0.037	0.078	-0.008	-0.034
-542.371	-10.157	0.030	0.010	0.046	-0.120
-540.341	361.435	-0.019	-0.062	0.081	-0.101
-538.312	700.000	-0.020	0.145	-0.065	-0.020
-536.283	57.397	-0.125	-0.092	-0.179	0.011
-534.254	72.720	-0.109	-0.092	0.010	-0.051
-532.225	107.390	-0.103	-0.114	-0.008	0.050
-530.195	-2.213	0.097	0.036	0.185	-0.057
-528.166	355.197	-0.022	0.069	0.034	-0.134
-526.137	142.336	0.086	0.118	0.002	-0.003
-524.108	700.000	-0.007	-0.088	0.136	0.031
-522.079	298.818	0.047	0.128	-0.053	0.118
-520.049	169.069	-0.060	-0.096	0.031	0.003
-518.020	-31.132	0.043	0.010	0.000	0.033
-515.991	-12.889	0.100	0.032	0.001	-0.026
-513.962	105.226	-0.097	-0.105	-0.014	-0.110
-511.933	72.997	-0.104	-0.088	-0.021	0.073
-509.904	31.976	0.136	-0.077	-0.081	0.038
-507.874	-42.791	0.077	0.015	0.090	-0.138
-505.845	90.808	-0.068	-0.066	0.116	0.163
-503.816	337.367	-0.027	-0.082	0.037	0.073
-501.787	80.902	0.046	-0.041	0.096	0.048
-499.758	79.561	0.065	-0.058	-0.086	0.008
-497.728	12.450	-0.046	-0.021	-0.078	0.006
-495.699	-200.000	0.006	0.104	0.035	0.097
-493.670	330.899	-0.023	-0.068	-0.042	0.045
-491.641	700.000	0.016	-0.113	-0.058	0.102
-489.612	47.269	-0.048	0.032	-0.039	0.013
-487.582	-6.708	0.019	-0.007	-0.023	0.105
-485.553	338.268	-0.001	-0.003	0.010	-0.099
-483.524	84.423	0.044	0.041	0.187	0.053
-481.495	18.161	-0.044	0.021	0.130	0.130
-479.466	126.831	-0.066	0.082	-0.055	-0.042
-477.437	171.587	-0.037	-0.060	-0.068	-0.107
-475.407	66.494	0.083	-0.066	-0.025	-0.050
-473.378	186.215	-0.037	0.064	-0.003	-0.050
-471.349	347.721	0.002	-0.007	-0.015	-0.047
-469.320	-87.802	-0.056	-0.004	-0.137	-0.002
-467.291	29.430	-0.150	0.082	-0.053	0.085
-465.261	96.216	0.125	0.127	0.184	-0.094
-463.232	700.000	0.013	0.126	0.056	0.003
-461.203	-200.000	0.005	-0.089	0.021	0.061
-459.174	-40.674	-0.065	0.013	0.028	-0.010
-457.145	147.022	-0.008	-0.011	0.065	0.105
-455.115	-200.000	-0.003	-0.165	-0.200	-0.023
-453.086	219.789	-0.069	0.139	-0.056	-0.168
-451.057	61.517	-0.054	0.041	0.037	0.064
-449.028	-85.473	-0.062	0.004	-0.117	-0.138
-446.999	288.357	-0.051	0.133	0.050	-0.103
-444.969	385.030	-0.011	-0.036	0.014	0.060
-442.940	700.000	0.041	0.236	0.195	0.019
-440.911	282.791	-0.056	0.143	0.077	0.163
-438.882	64.165	0.108	-0.084	0.044	0.065
-436.853	-50.991	-0.046	0.007	0.008	0.095
-434.824	67.906	-0.089	-0.072	-0.021	0.002
-432.794	-1.521	-0.195	-0.073	-0.036	-0.205
-430.765	216.365	-0.077	-0.155	0.108	-0.024
-428.736	700.000	0.002	0.028	-0.055	-0.018
-426.707	139.351	-0.063	-0.085	0.093	-0.073
-424.678	-70.821	0.140	-0.015	0.070	0.067
-422.648	700.000	0.012	-0.128	-0.025	-0.018
-420.619	18.115	-0.098	0.047	-0.079	0.080
-418.590	-200.000	0.002	-0.055	-0.039	-0.047
-416.561	-67.804	-0.056	-0.006	-0.011	0.123
-414.532	208.050	0.099	-0.191	-0.002	0.045
-412.502	54.234	-0.051	0.037	-0.051	0.069
-410.473	-34.997	0.029	-0.006	-0.069	0.114
-408.444	633.409	0.006	-0.032	0.023	-0.113
-406.415	-200.000	-0.006	-0.133	0.070	-0.026
-404.386	145.663	0.081	0.114	-0.015	0.047
-402.357	452.893	0.025	0.098	-0.158	0.066
-400.327	169.915	-0.036	0.058	-0.067	0.025
-398.298	-40.748	-0.056	0.011	-0.003	0.003
-396.269	-200.000	-0.004	-0.075	0.058	0.000
-394.240	261.062	0.009	0.022	-0.114	0.045
-392.211	177.258	-0.099	-0.165	0.068	-0.051
-390.181	34.046	-0.070	-0.040	0.040	-0.011
-388.152	153.323	-0.053	-0.078	0.021	0.003
-386.123	70.184	-0.069	0.057	0.048	0.051
-384.094	-90.180	0.086	-0.005	-0.038	-0.016
-382.065	93.057	-0.044	0.044	-0.066	0.001
-380.035	223.244	-0.055	0.114	0.111	-0.114
-378.006	700.000	-0.007	0.090	0.035	0.098
-375.977	204.085	0.047	-0.090	-0.045	-0.083
-373.948	700.000	0.003	-0.024	0.004	-0.006
-371.919	545.441	-0.018	-0.082	0.026	-0.026
-369.889	-43.788	0.092	-0.017	0.037	0.088
-367.860	423.600	-0.007	0.026	0.029	-0.026
-365.831	-77.598	0.058	-0.005	0.009	-0.062
-363.802	104.861	0.089	0.096	-0.095	0.038
-361.773	477.592	-0.017	-0.070	-0.068	-0.041
-359.744	248.225	-0.066	-0.149	-0.005	0.056
-357.714	-200.000	-0.005	0.101	0.050	0.111
-355.685	65.793	-0.045	0.036	0.023	0.023
-353.656	43.219	-0.066	0.042	-0.025	0.095
-351.627	266.664	0.018	0.044	0.001	0.051
-349.598	30.168	-0.027	0.015	-0.071	-0.088
-347.568	56.782	0.130	-0.095	0.054	-0.040
-345.539	-85.929	0.048	0.003	-0.036	0.014
-343.510	373.054	0.063	0.210	-0.166	0.056
-341.481	298.059	0.009	-0.024	-0.034	-0.059
-339.452	2.275	-0.132	0.052	0.009	0.000
-337.422	-43.695	-0.108	-0.020	-0.022	0.010
-335.393	700.000	0.021	0.160	-0.027	0.008
-333.364	-69.957	-0.029	-0.003	-0.001	0.103
-331.335	700.000	0.005	-0.063	0.038	-0.185
-329.306	700.000	-0.009	-0.114	0.030	0.079
-327.276	289.162	-0.049	-0.127	0.037	-0.163
-325.247	56.425	-0.027	0.020	-0.132	-0.036
-323.218	66.258	-0.101	-0.081	-0.069	-0.015
-321.189	137.022	0.071	0.094	-0.021	0.116
-319.160	700.000	-0.027	-0.195	0.103	-0.050
-317.131	88.380	0.085	0.081	-0.018	-0.035
-315.101	327.297	0.047	-0.137	0.093	-0.037
-313.072	48.385	-0.081	0.054	-0.099	-0.074
-311.043	52.791	0.106	0.074	-0.055	-0.054
-309.014	54.254	0.051	-0.036	-0.033	-0.233
-306.985	-200.000	-0.001	0.081	0.090	-0.057
-304.955	308.004	0.076	0.211	0.092	0.054
-302.926	36.667	-0.019	0.011	-0.034	-0.068
-300.897	15.329	0.051	-0.024	0.079	0.118
-298.868	52.544	-0.132	0.092	0.000	-0.088
-296.839	364.154	0.008	0.024	0.137	0.049
-294.809	-22.000	0.126	-0.035	0.037	0.061
-292.780	500.015	0.011	-0.046	-0.041	-0.003
-290.751	494.695	-0.020	-0.086	0.016	0.153
-288.722	10.589	0.135	-0.059	-0.127	0.104
-286.693	147.752	0.056	0.080	0.066	0.058
-284.664	-94.735	0.019	0.001	-0.012	-0.049
-282.634	-200.000	-0.004	0.155	0.101	0.063
-280.605	-45.423	0.043	0.008	-0.111	-0.176
-278.576	692.861	0.007	-0.038	-0.064	-0.041
-276.547	-48.646	0.130	0.022	0.002	-0.052
-274.518	-200.000	0.004	-0.103	-0.010	0.050
-272.488	186.266	0.025	-0.043	0.032	-0.081
-270.459	-13.801	0.075	0.023	0.070	-0.057
-268.430	-56.233	-0.105	-0.015	-0.053	-0.024
-266.401	17.180	-0.122	-0.059	-0.023	0.126
-264.372	8.233	-0.106	0.045	-0.107	-0.134
-262.342	-60.129	0.125	0.017	0.052	0.197
-260.313	44.238	0.021	-0.014	0.065	0.045
-258.284	-104.013	0.075	0.003	0.062	-0.041
-256.255	117.672	-0.035	0.042	0.065	-0.038
-254.226	395.401	0.046	-0.160	0.052	-0.106
-252.196	43.652	0.072	-0.046	-0.141	-0.070
-250.167	10.787	0.112	-0.049	-0.008	-0.102
-248.138	509.996	-0.022	0.095	0.024	0.021
-246.109	17.413	0.048	0.023	-0.018	0.091
-244.080	182.907	-0.078	0.133	-0.005	-0.027
-242.051	358.113	-0.052	0.167	0.096	-0.081
-240.021	700.000	0.019	0.121	0.004	0.004
-237.992	700.000	0.018	0.102	0.254	0.004
-235.963	224.266	-0.079	0.163	-0.096	0.115
-233.934	700.000	0.016	0.134	-0.060	0.038
-231.905	34.264	-0.060	-0.035	0.016	0.022
-229.875	261.664	0.080	0.190	-0.027	0.053
-227.846	99.976	-0.041	-0.043	-0.066	-0.176
-225.817	127.168	0.019	-0.024	-0.058	-0.179
-223.788	-19.164	-0.104	0.030	-0.105	-0.109
-221.759	164.195	-0.038	0.059	0.004	0.058
-219.729	252.493	0.053	-0.122	0.014	-0.005
-217.700	-62.549	-0.192	0.024	0.005	0.137
-215.671	36.017	0.108	-0.064	-0.060	-0.105
-213.642	-83.661	0.148	-0.011	0.060	0.047
-211.613	-81.795	0.212	-0.016	0.025	0.187
-209.584	-18.786	-0.063	-0.018	0.011	-0.059
-207.554	40.515	-0.066	0.041	0.049	-0.028
-205.525	178.240	-0.033	-0.055	0.030	0.005
-203.496	117.142	0.038	-0.044	-0.062	0.061
-201.467	-128.292	0.062	0.001	-0.074	0.029
-199.438	65.055	-0.073	0.057	0.047	-0.002
-197.408	53.356	-0.038	-0.027	-0.111	-0.071
-195.379	-54.269	0.075	-0.011	0.085	-0.045
-193.350	-41.630	0.091	0.018	-0.049	0.040
-191.321	173.857	0.054	0.089	0.118	-0.082
-189.292	319.815	0.017	-0.050	-0.109	-0.138
-187.262	233.021	-0.025	0.053	0.136	-0.014
-185.233	-5.482	-0.053	0.019	-0.017	0.053
-183.204	86.678	-0.115	0.108	-0.013	0.037
-181.175	309.023	0.069	-0.192	0.032	0.141
-179.146	104.261	0.103	-0.111	0.029	-0.063
-177.116	90.142	0.084	-0.082	-0.128	0.047
-175.087	700.000	0.011	0.109	0.036	-0.001
-173.058	599.678	0.031	0.157	-0.089	-0.003
-171.029	-105.958	0.120	0.004	0.056	0.088
-169.000	395.343	-0.059	-0.205	-0.080	0.003
-166.971	-35.686	0.063	-0.014	-0.009	-0.032
-164.941	507.871	0.021	-0.091	-0.080	-0.021
-162.912	700.000	0.004	-0.054	0.112	0.035
-160.883	156.822	-0.003	-0.004	-0.115	0.028
-158.854	-50.417	-0.123	-0.020	0.136	-0.002
-156.825	267.987	0.041	0.100	-0.013	-0.044
-154.795	295.844	-0.036	-0.097	0.094	-0.015
-152.766	122.020	-0.041	0.050	0.050	0.001
-150.737	443.843	0.015	0.059	0.024	-0.014
-148.708	127.800	0.071	-0.089	0.062	-0.001
-146.679	-33.334	0.070	0.016	-0.110	0.051
-144.649	-200.000	-0.000	0.036	0.099	-0.079
-142.620	-200.000	0.003	-0.167	0.156	0.010
-140.591	637.843	-0.021	0.112	0.055	0.020
-138.562	81.999	-0.053	0.048	0.005	-0.088
-136.533	-148.246	-0.163	0.001	-0.108	-0.134
-134.503	80.264	-0.080	-0.072	-0.017	0.075
-132.474	700.000	-0.006	-0.061	0.023	0.055
-130.445	700.000	0.004	-0.033	0.159	-0.083
-128.416	115.132	-0.068	-0.079	-0.014	0.119
-126.387	280.877	-0.028	-0.070	-0.057	-0.053
-124.358	-40.786	0.098	-0.019	0.137	-0.044
-122.328	1.050	0.103	-0.040	0.003	0.050
-120.299	242.477	0.049	0.109	0.057	-0.061
-118.270	-5.547	0.080	-0.028	-0.143	-0.039
-116.241	-200.000	-0.003	-0.068	0.014	-0.138
-114.212	-100.979	0.116	0.005	-0.019	0.031
-112.182	-67.134	-0.175	0.020	-0.028	0.028
-110.153	108.007	0.085	0.094	0.086	-0.106
-108.124	-69.133	0.031	-0.003	-0.112	0.003
-106.095	-200.000	0.006	-0.208	0.012	0.046
-104.066	700.000	0.020	-0.132	-0.151	-0.114
-102.036	700.000	0.015	-0.119	0.030	0.002
-100.007	-19.671	0.026	0.007	0.033	-0.032
-97.978	700.000	0.021	-0.128	-0.081	-0.064
-95.949	-93.773	-0.123	-0.008	0.101	0.159
-93.920	10.860	0.097	0.055	0.001	0.209
-91.891	8.661	0.108	-0.058	-0.026	0.164
-89.861	249.427	-0.016	0.040	-0.037	0.031
-87.832	-87.213	-0.199	-0.018	-0.002	-0.026
-85.803	183.628	-0.008	0.015	0.020	0.038
-83.774	14.191	0.110	-0.065	0.110	0.026
-81.745	251.163	0.033	-0.128	-0.186	-0.030
-79.715	-38.199	0.078	-0.025	0.005	-0.050
-77.686	397.027	-0.020	-0.069	0.025	0.030
-75.657	67.253	-0.035	-0.040	0.117	0.071
-73.628	226.370	-0.071	-0.204	0.033	0.143
-71.599	36.830	-0.032	-0.028	0.056	-0.204
-69.569	-3.520	0.091	0.054	0.086	0.043
-67.540	221.491	0.016	0.047	-0.081	0.029
-65.511	-74.325	-0.249	0.027	-0.293	0.015
-63.482	83.312	-0.114	-0.174	-0.056	-0.137
-61.453	273.557	0.625	-2.573	0.426	-2.709
-59.423	-1.957	-1.230	0.789	-1.130	0.989
-57.394	-11.501	-0.814	-0.350	-0.753	-0.532
-55.365	429.877	-6.404	-33.086	-7.756	-32.002
-53.336	700.000	91.158	909.714	88.323	886.521
-51.307	107.796	2366.777	3458.523	2361.866	3461.217
-49.278	71.001	1875.665	2134.836	1881.397	2147.960
-47.248	85.825	1769.302	2257.751	1764.236	2249.222
-45.219	97.376	1774.917	1971.258	1764.733	1964.028
-43.190	79.631	1741.527	1899.663	1730.263	1889.498
-41.161	75.055	1736.956	1892.060	1727.758	1884.250
-39.132	64.192	1735.109	1889.564	1726.576	1882.195
-37.102	85.336	1730.757	1884.605	1723.607	1879.554
-35.073	46.109	1728.098	1882.990	1720.556	1877.294
-33.044	67.669	1725.974	1878.263	1716.913	1871.923
-31.015	49.366	1723.390	1875.697	1712.467	1866.963
-28.986	83.994	1721.165	1872.939	1711.956	1866.190
-26.956	63.772	1717.873	1868.381	1710.508	1863.508
-24.927	65.468	1714.651	1864.972	1709.528	1861.652
-22.898	97.215	1712.907	1862.397	1706.419	1858.014
-20.869	94.188	1711.187	1861.348	1702.349	1853.775
-18.840	-83.566	1708.815	1857.677	1698.664	1850.901
-16.810	-34.323	1706.381	1854.106	1698.404	1848.220
-14.781	39.598	1704.522	1852.286	1696.081	1845.936
-12.752	-29.326	1702.270	1849.036	1694.550	1843.173
-10.723	46.814	1698.636	1846.070	1691.504	1839.779
-8.694	34.495	1696.788	1844.484	1689.958	1838.238
-6.665	32.363	1695.039	1841.967	1687.033	1836.369
-4.635	38.531	1692.033	1838.227	1687.355	1836.070
-2.606	38.531	1690.640	1836.157	1685.397	1834.116
-0.577	38.512	1687.784	1832.057	1683.018	1832.167
1.452	37.280	1652.262	1770.876	1670.528	1806.081
3.481	33.824	1377.352	1422.806	1421.438	1465.685
5.511	34.116	1255.339	1300.323	1116.450	1151.787
7.540	34.005	1236.388	1279.240	1088.105	1126.429
9.569	33.781	1219.176	1259.091	1062.069	1096.437
11.598	33.810	1214.586	1253.893	1055.452	1089.522
13.627	33.841	1211.913	1251.652	1054.267	1089.218
15.657	33.777	1213.882	1252.909	1055.847	1089.960
17.686	33.747	1211.483	1249.858	1052.967	1086.714
19.715	33.926	1209.270	1248.969	1051.835	1085.548
21.744	33.773	1207.033	1244.300	1052.294	1084.660
23.773	33.838	1201.087	1238.945	1048.470	1081.014
25.802	33.868	1199.191	1236.725	1046.165	1078.032
27.832	33.797	1195.773	1232.401	1043.111	1075.289
29.861	33.379	1188.884	1219.115	1039.369	1051.458
31.890	25.466	1168.362	1096.220	1012.750	925.212
33.919	22.342	1148.563	1041.386	1001.271	898.664
35.948	22.145	1144.519	1033.164	995.030	887.434
37.978	20.813	1138.915	1021.072	996.498	888.909
40.007	18.912	1130.791	1013.763	993.775	883.349
42.036	19.674	1131.801	1015.856	991.338	881.986
44.065	18.226	1132.427	1015.168	992.486	883.075
46.094	17.625	1129.518	1013.391	990.780	882.124
48.124	17.584	1129.864	1013.584	989.384	881.192
50.153	17.529	1127.014	1009.649	989.020	880.608
52.182	17.585	1123.182	1006.243	987.321	878.982
54.211	17.646	1120.568	1004.257	986.881	885.063
56.240	18.309	1121.245	1012.419	1006.336	991.939
58.270	26.352	1140.937	1132.406	1016.197	1043.464
60.299	29.465	1149.403	1181.936	1016.872	1057.728
62.328	30.569	1153.245	1200.232	1019.209	1067.358
64.357	31.163	1155.553	1210.954	1019.515	1071.337
66.386	31.146	1158.667	1218.887	1017.966	1071.090
68.415	30.866	1158.885	1220.504	1015.840	1069.101
70.445	25.820	1157.481	1218.576	1011.164	1062.819
72.474	20.660	1152.306	1209.526	1013.065	1063.743
74.503	19.594	1150.573	1208.391	1009.718	1059.121
76.532	19.484	1149.848	1205.689	1009.158	1055.658
78.561	19.070	1144.398	1195.122	1006.300	1051.132
80.591	19.304	1142.196	1194.399	1006.832	1053.405
82.620	19.369	1144.833	1197.119	1006.271	1054.170
84.649	19.545	1140.164	1194.680	1005.176	1052.346
86.678	19.482	1140.825	1193.938	1004.619	1049.226
88.707	19.306	1139.439	1189.565	1002.452	1045.174
90.737	19.227	1137.406	1186.095	995.928	1033.941
92.766	19.450	1132.034	1176.030	993.879	1031.947
94.795	19.832	1131.168	1173.281	996.314	1034.461
96.824	25.315	1128.738	1170.868	996.219	1034.598
98.853	30.386	1130.606	1174.405	995.763	1036.050
100.882	32.161	1129.250	1174.478	995.347	1038.121
102.912	32.887	1127.481	1175.860	991.669	1035.654
104.941	33.391	1124.981	1175.030	989.132	1033.674
106.970	33.608	1125.338	1176.570	989.450	1035.676
108.999	33.715	1123.725	1174.922	990.973	1032.823
111.028	33.244	1122.646	1169.185	988.801	1029.895
113.058	33.217	1123.633	1170.562	986.391	1029.794
115.087	33.300	1122.911	1171.759	985.499	1029.860
117.116	33.130	1121.060	1170.863	984.908	1028.940
119.145	33.102	1117.879	1168.428	981.213	1025.311
121.174	33.319	1114.269	1165.607	979.555	1023.266
123.204	33.456	1114.786	1165.853	981.637	1024.086
125.233	33.327	1113.790	1163.168	978.789	1022.598
127.262	33.309	1117.102	1168.090	976.209	1021.086
129.291	33.139	1113.124	1163.432	978.117	1021.798
131.320	32.834	1112.035	1161.428	973.012	1015.805
133.350	32.548	1111.608	1159.788	971.740	1015.522
135.379	32.616	1106.370	1155.074	973.918	1013.709
137.408	32.358	1104.113	1147.635	968.706	1007.663
139.437	32.525	1100.247	1143.435	969.374	1008.459
141.466	32.882	1101.741	1145.552	969.237	1005.968
143.495	32.738	1101.878	1142.302	964.503	998.347
145.525	32.657	1100.249	1138.895	963.639	999.713
147.554	32.817	1097.348	1136.976	963.464	999.282
149.583	32.652	1096.277	1137.120	960.480	996.956
151.612	32.752	1093.155	1135.091	958.688	995.497
153.641	32.951	1092.483	1133.656	958.694	993.742
155.671	32.995	1092.754	1132.860	955.007	987.924
157.700	32.799	1090.281	1127.643	954.644	986.688
159.729	32.882	1089.564	1126.749	957.118	991.243
161.758	33.097	1088.563	1127.377	954.253	988.209
163.787	33.046	1087.831	1127.432	951.197	982.044
165.817	33.116	1087.496	1126.389	948.257	980.710
167.846	33.216	1085.103	1124.332	947.699	982.533
169.875	33.243	1084.959	1125.303	947.788	983.525
171.904	33.283	1082.391	1123.286	947.894	984.167
173.933	33.299	1082.232	1123.273	948.541	982.680
175.963	32.998	1081.141	1120.839	943.824	976.758
177.992	32.761	1080.086	1119.085	942.346	974.860
180.021	32.584	1078.331	1114.852	942.352	975.618
182.050	32.713	1071.716	1109.675	943.040	978.401
184.079	32.777	1072.069	1112.299	939.009	972.453
186.108	32.579	1069.823	1108.038	936.572	970.635
188.138	32.816	1068.143	1107.740	936.540	972.295
190.167	33.129	1070.197	1111.715	936.840	972.442
192.196	33.192	1069.282	1110.735	936.023	971.662
194.225	33.117	1067.657	1109.321	934.629	973.050
196.254	33.189	1068.656	1112.699	934.141	972.427
198.284	33.112	1067.665	1111.685	932.456	969.279
200.313	33.173	1066.392	1109.426	932.522	967.500
202.342	33.090	1064.837	1105.245	928.959	962.581
204.371	32.976	1059.839	1098.472	925.657	960.316
206.400	33.098	1059.543	1099.725	925.621	959.091
208.430	33.061	1061.663	1100.205	925.063	957.953
210.459	33.130	1060.527	1098.369	923.957	957.089
212.488	33.241	1057.200	1095.206	921.425	953.271
214.517	33.028	1054.558	1090.902	921.236	951.785
216.546	32.977	1051.511	1087.643	920.688	949.940
218.575	32.818	1049.797	1084.059	921.491	950.853
220.605	32.854	1051.525	1086.057	919.178	949.189
222.634	33.032	1052.120	1086.843	918.486	950.165
224.663	33.199	1047.510	1083.198	917.964	949.494
226.692	33.150	1045.862	1081.891	917.995	947.897
228.721	33.232	1045.894	1080.342	914.199	942.652
230.751	33.415	1044.119	1078.470	911.025	943.226
232.780	33.692	1045.178	1082.543	912.945	943.208
234.809	33.611	1043.196	1077.877	909.072	939.263
236.838	33.653	1040.990	1075.834	909.413	939.521
238.867	33.593	1039.942	1074.204	908.630	939.583
240.897	33.653	1041.447	1077.247	907.542	935.858
242.926	33.253	1038.165	1070.986	903.996	928.588
244.955	32.895	1034.343	1062.510	903.742	929.961
246.984	33.053	1034.920	1064.954	903.413	930.824
249.013	33.076	1029.337	1059.603	902.493	930.214
251.043	33.256	1032.278	1064.866	899.453	926.000
253.072	33.074	1031.209	1061.472	899.033	928.176
255.101	33.330	1028.992	1062.299	899.439	928.660
