DTS Sentinel unit serial number:	SN307009Multiplexer serial number:	multiplexer serial numberHardware model number:	HL4Software version number:	Halo DTS v1.0data status	okinstallation	NYAN30AUG2019differential loss correction	combinedforward channel	channel 1reverse channel	channel 1 reversedate	2003/01/11time	03:06:09forward acquisition time	60.05reverse acquisition time	60.08gamma	510.3900k internal	0.1902k external	0.1902temperature offset calibration	1.0000default loss term (dB/km)	0.3938temperature slope calibration	NaNmultiplexer offset coefficient	1.0000multiplexer slope coefficient	1.0000fibre end	1298.10T internal ref (°C)	34.42T ext. ref 1 (°C)	NaNT ext. ref 2 (°C)	NaNlength (m)	temperature (°C)	forward Stokes	forward anti-Stokes	reverse Stokes	reverse anti-Stokes-584.984	29.133	-0.080	0.058	-0.033	-0.036
-582.954	135.640	0.046	0.080	0.016	-0.011
-580.925	53.174	0.012	-0.011	0.034	0.001
-578.896	114.943	0.131	-0.199	-0.184	0.048
-576.867	365.200	0.036	0.153	-0.183	-0.095
-574.838	74.131	0.093	-0.104	-0.004	-0.063
-572.808	700.000	-0.003	0.032	0.086	-0.051
-570.779	-24.194	0.076	-0.027	-0.101	0.030
-568.750	-57.662	0.066	0.012	0.027	0.071
-566.721	43.990	-0.100	-0.084	-0.049	-0.167
-564.692	-17.494	-0.063	0.025	0.169	0.023
-562.662	-94.658	-0.016	-0.001	-0.041	0.069
-560.633	229.225	0.021	-0.059	-0.022	0.075
-558.604	-27.506	0.152	-0.050	-0.110	0.050
-556.575	-21.224	0.033	-0.012	0.080	0.000
-554.546	-26.778	-0.151	-0.050	0.033	-0.117
-552.517	83.229	-0.044	0.052	-0.006	-0.018
-550.487	580.442	-0.017	0.109	-0.060	-0.046
-548.458	168.128	0.039	0.080	-0.038	0.115
-546.429	9.226	-0.073	0.042	0.062	0.079
-544.400	55.825	-0.127	0.120	0.003	0.044
-542.371	-42.211	-0.130	-0.033	-0.035	0.222
-540.341	-200.000	0.001	-0.083	0.001	0.011
-538.312	99.787	0.063	0.085	0.072	0.024
-536.283	-200.000	0.003	-0.118	0.053	0.081
-534.254	-6.417	-0.182	0.084	0.165	-0.125
-532.225	-25.137	0.044	0.015	0.067	0.070
-530.195	269.227	-0.033	-0.106	-0.035	-0.045
-528.166	-85.076	-0.111	0.010	-0.030	0.032
-526.137	175.504	0.066	-0.143	0.122	0.004
-524.108	700.000	0.011	0.134	-0.055	0.041
-522.079	238.900	-0.044	-0.125	-0.111	0.050
-520.049	-93.415	0.121	0.009	0.100	-0.035
-518.020	-85.855	0.163	0.015	0.009	0.109
-515.991	31.450	-0.027	0.020	0.005	-0.007
-513.962	39.389	0.068	0.054	0.052	0.058
-511.933	219.061	0.026	0.070	-0.063	0.024
-509.904	440.413	0.022	0.113	-0.074	-0.009
-507.874	61.692	-0.045	0.045	-0.114	0.043
-505.845	38.574	0.136	-0.108	0.025	-0.111
-503.816	237.309	-0.022	-0.061	0.050	0.027
-501.787	-200.000	-0.003	-0.130	-0.072	-0.049
-499.758	36.431	-0.094	0.073	0.002	0.086
-497.728	0.364	-0.062	-0.031	0.063	-0.058
-495.699	-200.000	0.002	0.102	0.086	-0.068
-493.670	223.646	0.015	0.041	0.106	0.029
-491.641	6.192	0.101	0.055	0.057	-0.064
-489.612	-36.040	0.013	-0.004	0.076	0.063
-487.582	184.377	-0.010	0.022	0.054	-0.108
-485.553	-101.012	-0.141	0.008	0.112	0.059
-483.524	44.180	0.080	0.067	-0.038	0.109
-481.495	599.951	0.016	-0.102	0.002	-0.123
-479.466	-200.000	-0.004	0.232	-0.047	0.000
-477.437	113.814	-0.092	0.138	0.054	0.090
-475.407	132.842	-0.020	-0.033	0.091	0.038
-473.378	124.518	0.038	0.062	-0.099	-0.117
-471.349	131.903	0.040	-0.067	-0.006	-0.015
-469.320	137.533	0.066	0.116	-0.018	-0.037
-467.291	-17.644	0.137	-0.053	0.046	0.020
-465.261	292.760	0.042	0.147	-0.048	-0.033
-463.232	700.000	0.020	-0.157	-0.005	0.037
-461.203	83.785	-0.073	0.088	0.050	-0.003
-459.174	19.767	0.102	-0.066	-0.017	-0.027
-457.145	308.259	0.019	0.069	-0.021	-0.038
-455.115	700.000	-0.007	-0.100	-0.118	-0.056
-453.086	57.481	0.097	0.093	-0.000	0.010
-451.057	28.870	-0.048	0.034	-0.066	-0.098
-449.028	-69.352	-0.118	0.017	-0.006	-0.071
-446.999	-79.509	0.082	0.009	0.038	-0.000
-444.969	225.113	-0.012	-0.034	0.079	0.048
-442.940	700.000	0.021	0.248	-0.051	0.178
-440.911	-46.258	0.150	0.035	0.012	0.093
-438.882	40.105	-0.031	-0.025	0.090	-0.015
-436.853	-32.287	0.078	0.024	-0.100	-0.058
-434.824	-22.313	-0.056	0.020	-0.002	0.009
-432.794	63.018	-0.072	-0.073	-0.092	0.005
-430.765	77.158	-0.086	-0.098	0.078	0.061
-428.736	96.917	-0.042	0.056	0.088	-0.011
-426.707	700.000	0.007	0.116	-0.029	0.082
-424.678	152.586	0.015	0.029	-0.044	-0.064
-422.648	-200.000	0.003	0.147	-0.103	0.050
-420.619	5.187	0.174	-0.094	-0.121	0.029
-418.590	336.935	0.016	-0.062	-0.064	-0.001
-416.561	700.000	-0.013	0.162	-0.009	-0.073
-414.532	-200.000	0.002	0.082	-0.014	0.101
-412.502	49.320	-0.036	-0.032	-0.200	-0.004
-410.473	155.223	0.022	-0.043	-0.127	0.075
-408.444	-136.478	0.136	0.002	0.042	0.017
-406.415	105.201	-0.106	0.150	0.034	-0.144
-404.386	3.694	-0.065	0.034	-0.135	0.143
-402.357	180.378	0.027	-0.061	0.095	0.016
-400.327	65.802	-0.118	0.122	-0.026	-0.006
-398.298	-65.067	0.095	-0.015	0.113	0.063
-396.269	-25.755	0.114	0.039	-0.116	0.019
-394.240	-49.881	0.040	0.009	0.013	0.060
-392.211	700.000	0.013	0.122	-0.081	-0.039
-390.181	256.841	0.031	-0.096	0.136	-0.110
-388.152	61.147	0.071	0.070	-0.079	0.063
-386.123	-6.595	0.149	-0.068	-0.033	0.134
-384.094	-5.060	0.104	0.048	0.026	0.094
-382.065	-49.759	0.115	-0.025	0.000	-0.080
-380.035	-61.483	0.037	0.006	0.096	0.079
-378.006	700.000	-0.009	-0.067	0.050	0.030
-375.977	131.908	-0.020	-0.034	-0.103	0.012
-373.948	700.000	0.013	0.136	0.039	-0.199
-371.919	-69.158	0.030	0.004	-0.035	-0.003
-369.889	34.233	0.083	0.063	-0.120	0.033
-367.860	-22.541	-0.075	0.027	-0.073	-0.104
-365.831	185.402	0.042	0.096	0.035	-0.099
-363.802	-38.582	0.099	0.027	-0.133	-0.059
-361.773	-66.330	-0.166	-0.025	0.092	-0.123
-359.744	148.809	-0.038	0.070	0.107	-0.191
-357.714	-76.641	0.162	-0.019	0.047	0.024
-355.685	42.638	-0.082	-0.068	-0.086	-0.036
-353.656	-121.137	-0.157	-0.004	0.097	0.024
-351.627	14.467	-0.141	-0.085	0.015	-0.005
-349.598	163.603	-0.033	0.066	-0.116	-0.034
-347.568	-20.517	0.016	0.006	-0.028	-0.042
-345.539	-10.876	0.055	0.024	0.014	0.081
-343.510	-27.593	0.065	-0.021	-0.012	0.015
-341.481	108.615	0.048	0.069	0.063	-0.048
-339.452	122.953	-0.057	-0.091	0.006	-0.003
-337.422	-51.028	-0.136	-0.029	-0.000	0.144
-335.393	628.886	-0.023	0.153	0.005	-0.071
-333.364	40.850	-0.020	0.016	-0.044	-0.058
-331.335	166.127	0.068	-0.140	-0.036	-0.026
-329.306	197.061	-0.047	-0.112	-0.097	-0.031
-327.276	-70.594	-0.055	-0.008	-0.075	0.171
-325.247	181.631	-0.037	-0.082	-0.130	0.108
-323.218	-82.755	0.058	-0.006	0.056	0.119
-321.189	-1.189	-0.064	0.032	0.019	0.091
-319.160	-93.537	-0.124	-0.009	-0.022	0.118
-317.131	56.274	-0.169	-0.160	-0.074	0.050
-315.101	46.635	-0.082	0.071	-0.078	-0.027
-313.072	250.597	0.042	-0.125	0.004	-0.094
-311.043	331.942	0.023	0.090	0.004	0.020
-309.014	-38.712	-0.154	0.042	-0.065	0.124
-306.985	-200.000	0.001	0.117	0.007	-0.037
-304.955	21.562	0.041	-0.027	-0.131	0.017
-302.926	-32.332	0.039	0.012	0.077	0.121
-300.897	163.333	-0.060	-0.121	0.010	0.033
-298.868	27.158	0.054	-0.038	0.008	-0.045
-296.839	143.482	0.085	-0.154	-0.198	-0.263
-294.809	79.812	0.045	-0.053	0.003	-0.002
-292.780	69.758	0.071	0.076	-0.077	0.165
-290.751	-59.811	-0.076	0.013	-0.059	-0.061
-288.722	700.000	-0.013	0.207	0.012	-0.025
-286.693	70.542	-0.012	0.013	-0.062	0.054
-284.664	61.138	-0.070	-0.070	-0.164	0.132
-282.634	235.610	0.046	-0.130	0.181	-0.000
-280.605	9.495	-0.105	-0.060	0.149	-0.019
-278.576	39.229	0.023	-0.019	0.042	0.001
-276.547	-115.523	0.127	-0.004	-0.063	0.077
-274.518	524.937	-0.005	0.030	0.074	-0.062
-272.488	157.604	0.040	0.079	0.132	-0.058
-270.459	258.376	-0.041	-0.125	-0.044	-0.065
-268.430	-25.432	0.130	-0.044	-0.052	-0.042
-266.401	279.071	-0.032	-0.105	0.057	-0.113
-264.372	407.102	-0.011	0.052	0.017	0.095
-262.342	-106.948	0.132	-0.006	-0.115	0.057
-260.313	98.687	0.024	-0.032	0.090	0.094
-258.284	26.433	-0.085	-0.059	0.036	0.106
-256.255	387.078	-0.030	-0.135	0.089	-0.106
-254.226	144.980	0.047	0.085	-0.044	0.041
-252.196	79.388	0.069	-0.081	-0.088	-0.094
-250.167	16.625	-0.078	0.049	0.128	-0.122
-248.138	67.704	-0.148	-0.156	-0.041	0.115
-246.109	76.969	0.089	0.101	0.108	0.078
-244.080	49.907	0.019	-0.017	0.132	0.013
-242.051	56.194	0.048	0.046	0.028	0.129
-240.021	-7.392	-0.169	-0.076	-0.036	-0.111
-237.992	-23.560	0.062	-0.022	0.042	0.110
-235.963	16.354	-0.096	-0.059	0.096	-0.126
-233.934	8.635	-0.182	-0.102	0.005	-0.063
-231.905	21.462	-0.036	-0.024	-0.004	0.038
-229.875	7.748	0.109	-0.061	0.073	-0.128
-227.846	-20.786	0.139	0.051	-0.031	0.050
-225.817	700.000	-0.014	-0.140	0.050	-0.132
-223.788	27.959	-0.037	0.026	0.023	-0.011
-221.759	-55.115	-0.153	-0.030	-0.088	-0.033
-219.729	46.210	-0.065	-0.056	0.054	-0.009
-217.700	-93.451	-0.037	-0.003	0.043	0.009
-215.671	20.116	-0.106	0.069	-0.070	-0.075
-213.642	-62.539	-0.131	0.022	0.024	0.163
-211.613	152.129	0.053	0.101	-0.016	-0.186
-209.584	256.051	0.017	-0.052	0.104	-0.097
-207.554	65.318	-0.079	0.082	-0.030	-0.088
-205.525	-65.516	-0.041	-0.006	0.044	0.026
-203.496	162.299	-0.106	0.214	-0.036	-0.038
-201.467	700.000	0.003	-0.030	-0.057	0.032
-199.438	40.697	0.060	0.049	0.008	0.018
-197.408	700.000	0.019	-0.177	0.060	-0.050
-195.379	49.039	0.087	-0.077	-0.021	-0.030
-193.350	-49.650	0.084	-0.018	0.097	-0.057
-191.321	-57.014	-0.018	0.003	0.093	-0.019
-189.292	-200.000	0.001	-0.068	-0.035	0.056
-187.262	47.309	0.066	0.057	-0.059	-0.077
-185.233	-17.917	0.086	-0.033	-0.085	0.157
-183.204	29.472	-0.044	-0.032	0.110	0.021
-181.175	34.533	-0.100	-0.076	-0.086	0.011
-179.146	89.636	0.099	-0.125	0.179	-0.047
-177.116	294.602	0.022	-0.078	0.005	-0.121
-175.087	-15.146	0.044	-0.018	0.035	-0.051
-173.058	38.812	-0.126	0.100	0.167	0.170
-171.029	64.084	-0.070	-0.071	0.003	-0.134
-169.000	284.675	0.048	0.163	-0.021	0.056
-166.971	-1.485	-0.082	-0.040	-0.096	0.097
-164.941	100.176	-0.109	-0.149	-0.016	0.041
-162.912	-2.438	0.104	0.050	-0.057	-0.005
-160.883	189.776	-0.023	-0.052	-0.019	-0.131
-158.854	-50.310	0.057	0.012	0.010	0.040
-156.825	71.231	0.027	0.029	-0.108	-0.190
-154.795	153.691	-0.044	-0.085	0.092	0.032
-152.766	-14.960	0.074	0.030	0.057	0.123
-150.737	182.015	0.092	0.205	-0.008	0.110
-148.708	700.000	0.008	-0.155	0.096	0.149
-146.679	7.527	-0.056	-0.031	-0.008	-0.052
-144.649	-85.729	-0.083	0.008	-0.071	0.053
-142.620	-30.943	-0.162	-0.050	-0.039	0.071
-140.591	102.218	0.057	0.079	-0.056	-0.139
-138.562	2.646	0.067	-0.035	0.050	-0.019
-136.533	258.124	0.025	-0.078	-0.046	-0.129
-134.503	14.222	0.169	-0.102	-0.003	0.061
-132.474	700.000	-0.014	-0.121	-0.025	-0.017
-130.445	105.065	-0.037	-0.053	0.015	-0.116
-128.416	-95.190	-0.127	-0.009	-0.046	-0.043
-126.387	625.809	-0.014	-0.093	-0.040	-0.012
-124.358	-109.477	-0.159	0.007	-0.147	-0.105
-122.328	391.181	0.013	-0.060	-0.192	0.061
-120.299	163.773	0.052	0.106	0.071	-0.033
-118.270	45.453	0.007	-0.006	-0.096	0.059
-116.241	-125.054	0.024	0.001	0.161	-0.129
-114.212	206.108	-0.030	0.074	0.015	-0.005
-112.182	30.992	0.133	0.098	0.074	-0.124
-110.153	-5.069	-0.047	-0.022	-0.035	0.116
-108.124	-65.828	-0.044	-0.007	0.089	0.013
-106.095	223.065	0.042	0.112	0.032	0.056
-104.066	102.702	0.061	0.085	0.010	-0.052
-102.036	-54.452	0.057	-0.011	-0.059	0.074
-100.007	-105.666	-0.069	0.003	0.014	-0.039
-97.978	74.876	-0.150	0.177	0.154	-0.032
-95.949	-69.556	0.056	0.010	0.040	-0.059
-93.920	517.313	-0.005	-0.035	-0.080	0.055
-91.891	-56.015	0.081	-0.019	-0.050	0.030
-89.861	71.261	-0.055	-0.051	-0.052	0.093
-87.832	174.535	0.069	0.141	-0.147	-0.003
-85.803	31.035	-0.071	0.058	-0.027	0.059
-83.774	-34.298	-0.097	-0.027	-0.064	-0.055
-81.745	332.412	-0.063	0.225	-0.059	-0.007
-79.715	522.569	-0.020	0.110	-0.055	0.009
-77.686	-101.416	0.004	-0.000	-0.031	0.124
-75.657	-37.631	-0.068	-0.023	0.017	-0.057
-73.628	3.124	-0.047	-0.029	0.022	-0.067
-71.599	-200.000	-0.002	-0.044	0.049	0.064
-69.569	42.835	0.036	0.025	-0.027	-0.002
-67.540	-0.919	0.101	-0.071	0.021	0.075
-65.511	-41.771	-0.227	0.092	-0.240	0.145
-63.482	-200.000	0.005	-0.170	-0.069	-0.187
-61.453	312.366	0.611	-2.521	0.641	-2.407
-59.423	-45.009	-1.520	0.390	-1.167	0.787
-57.394	-2.337	-0.877	-0.480	-0.850	-0.269
-55.365	263.869	-7.735	-33.184	-6.714	-32.695
-53.336	700.000	100.662	943.648	93.008	904.458
-51.307	117.830	2386.719	3452.986	2380.028	3457.207
-49.278	84.185	1881.920	2136.505	1883.871	2144.538
-47.248	67.843	1786.887	2287.792	1773.735	2256.482
-45.219	61.181	1791.394	1987.676	1771.878	1966.637
-43.190	54.696	1757.327	1914.421	1738.327	1895.251
-41.161	37.612	1753.190	1907.127	1735.502	1889.372
-39.132	18.431	1751.287	1904.574	1734.042	1887.689
-37.102	76.578	1746.471	1899.024	1731.506	1885.251
-35.073	87.559	1743.874	1898.215	1727.973	1881.869
-33.044	49.660	1741.197	1893.844	1724.647	1876.561
-31.015	53.865	1738.869	1891.065	1719.936	1871.916
-28.986	87.009	1736.390	1887.642	1719.630	1869.808
-26.956	84.485	1733.136	1883.985	1717.843	1868.068
-24.927	76.003	1730.181	1879.624	1716.952	1866.395
-22.898	56.825	1727.595	1877.677	1713.947	1862.371
-20.869	117.578	1726.971	1875.732	1709.657	1857.911
-18.840	-111.842	1724.283	1872.266	1706.574	1855.175
-16.810	-34.044	1721.701	1869.228	1705.889	1853.044
-14.781	40.369	1719.732	1866.731	1703.487	1850.186
-12.752	-28.687	1717.533	1864.407	1702.199	1848.260
-10.723	46.954	1714.326	1861.000	1698.824	1845.265
-8.694	34.390	1712.456	1859.149	1697.981	1843.005
-6.665	32.454	1710.193	1856.668	1694.691	1841.536
-4.635	38.754	1706.994	1853.070	1695.209	1841.197
-2.606	38.704	1705.949	1850.461	1693.414	1838.358
-0.577	38.613	1703.197	1846.300	1690.638	1837.030
1.452	37.351	1665.586	1781.264	1677.424	1809.609
3.481	33.866	1388.917	1431.046	1424.611	1466.159
5.511	34.206	1269.370	1313.007	1121.952	1154.873
7.540	34.034	1250.503	1291.421	1094.010	1129.576
9.569	33.817	1233.045	1270.691	1067.797	1099.136
11.598	33.899	1227.888	1265.889	1060.719	1092.950
13.627	33.975	1225.453	1263.336	1059.926	1092.453
15.657	33.974	1227.327	1265.763	1061.859	1094.132
17.686	33.966	1224.698	1261.580	1058.717	1090.223
19.715	33.965	1222.921	1260.063	1057.840	1088.768
21.744	33.866	1220.506	1256.680	1057.825	1087.973
23.773	33.855	1214.479	1250.209	1054.216	1084.395
25.802	33.868	1212.506	1248.169	1051.530	1081.897
27.832	33.818	1209.103	1244.070	1048.910	1078.556
29.861	33.377	1202.511	1230.303	1044.859	1054.001
31.890	25.414	1180.858	1105.252	1018.411	927.563
33.919	22.456	1161.290	1051.766	1006.817	901.523
35.948	22.268	1157.967	1043.517	1000.680	890.353
37.978	20.876	1152.214	1031.046	1002.474	891.625
40.007	18.839	1144.259	1023.479	999.133	886.637
42.036	19.739	1145.367	1026.576	996.842	885.518
44.065	18.273	1145.497	1025.002	998.164	886.379
46.094	17.669	1142.869	1023.814	996.606	885.022
48.124	17.706	1143.167	1023.673	995.322	884.154
50.153	17.644	1139.916	1020.091	995.294	883.818
52.182	17.523	1136.166	1015.917	993.405	882.077
54.211	17.612	1133.625	1014.196	992.464	887.886
56.240	18.266	1134.690	1023.080	1012.344	995.737
58.270	26.357	1154.958	1144.310	1022.124	1047.636
60.299	29.528	1162.936	1193.696	1022.751	1061.684
62.328	30.666	1166.785	1212.748	1025.097	1071.153
64.357	31.203	1169.453	1223.352	1025.383	1075.393
66.386	31.180	1172.132	1231.077	1023.356	1075.276
68.415	30.903	1172.350	1233.032	1022.091	1072.710
70.445	25.807	1171.039	1230.645	1017.270	1066.504
72.474	20.727	1165.666	1222.196	1019.405	1067.376
74.503	19.587	1164.606	1220.912	1016.212	1063.116
76.532	19.483	1163.672	1217.894	1015.264	1059.314
78.561	19.112	1158.292	1207.871	1012.117	1055.354
80.591	19.299	1155.774	1206.216	1013.098	1057.944
82.620	19.372	1158.913	1210.257	1012.725	1058.598
84.649	19.508	1154.219	1206.885	1011.030	1056.004
86.678	19.466	1153.987	1206.018	1010.433	1053.806
88.707	19.326	1153.019	1202.056	1008.597	1049.459
90.737	19.195	1151.234	1197.952	1001.800	1038.868
92.766	19.378	1145.370	1188.200	1000.288	1036.376
94.795	19.736	1144.218	1185.245	1002.615	1038.389
96.824	25.305	1141.848	1182.827	1002.698	1038.666
98.853	30.351	1143.724	1186.326	1001.702	1040.629
100.882	32.210	1142.718	1186.528	1001.644	1042.450
102.912	33.013	1140.973	1188.248	998.059	1040.214
104.941	33.449	1138.273	1187.190	995.338	1038.170
106.970	33.649	1138.773	1188.031	995.835	1040.387
108.999	33.686	1136.717	1186.493	997.157	1036.261
111.028	33.132	1136.054	1180.497	995.248	1033.669
113.058	33.123	1136.479	1182.282	992.774	1034.430
115.087	33.326	1135.832	1183.706	991.960	1034.039
117.116	33.236	1133.881	1182.852	991.159	1033.663
119.145	33.144	1131.126	1180.253	987.344	1029.810
121.174	33.388	1127.530	1177.809	985.675	1027.252
123.204	33.417	1127.600	1177.044	988.049	1028.370
125.233	33.308	1126.712	1175.221	985.067	1027.083
127.262	33.280	1129.965	1180.650	982.206	1025.412
129.291	33.167	1126.073	1175.801	983.701	1025.313
131.320	32.873	1124.919	1173.340	979.041	1019.924
133.350	32.601	1124.918	1171.950	978.100	1019.813
135.379	32.590	1119.518	1166.695	979.855	1017.583
137.408	32.423	1117.266	1160.225	974.703	1010.825
139.437	32.519	1113.858	1155.437	975.207	1012.758
141.466	32.908	1114.912	1157.873	975.392	1010.177
143.495	32.743	1114.984	1154.527	970.455	1002.209
145.525	32.743	1113.005	1150.993	969.672	1003.044
147.554	32.868	1110.098	1148.324	969.301	1003.356
149.583	32.792	1109.126	1148.733	966.102	1000.729
151.612	32.785	1105.938	1146.428	964.336	998.764
153.641	33.067	1105.078	1145.963	964.528	997.432
155.671	33.095	1105.726	1144.576	961.042	991.457
157.700	33.025	1103.067	1140.342	959.911	990.847
159.729	32.925	1102.493	1138.581	962.783	995.113
161.758	33.098	1101.264	1139.290	959.983	991.634
163.787	33.137	1100.460	1139.509	956.980	985.891
165.817	33.064	1100.377	1137.911	954.197	984.474
167.846	33.161	1098.280	1135.388	953.122	986.406
169.875	33.318	1097.938	1137.355	953.489	987.549
171.904	33.318	1094.900	1134.552	953.371	987.909
173.933	33.320	1095.218	1134.737	954.306	986.179
175.963	32.996	1093.825	1131.718	949.373	980.301
177.992	32.738	1093.098	1130.452	948.218	979.112
180.021	32.674	1090.874	1126.592	947.863	979.404
182.050	32.720	1084.821	1121.736	948.690	982.316
184.079	32.739	1084.935	1123.686	944.957	976.232
186.108	32.713	1082.135	1119.703	942.139	974.346
188.138	32.889	1081.215	1119.169	942.198	976.274
190.167	33.169	1083.287	1123.230	942.186	976.437
192.196	33.147	1082.273	1122.298	941.945	975.784
194.225	33.192	1080.308	1120.908	940.060	976.723
196.254	33.270	1081.507	1124.740	939.991	976.468
198.284	33.156	1080.764	1123.547	938.454	973.482
200.313	33.133	1079.489	1120.504	938.001	971.861
202.342	33.092	1077.785	1116.307	934.632	966.048
204.371	32.949	1072.955	1109.943	931.314	964.904
206.400	33.119	1072.316	1110.866	931.306	963.002
208.430	33.153	1074.399	1111.714	931.006	961.873
210.459	33.224	1072.983	1109.997	929.408	960.347
212.488	33.278	1069.625	1105.917	927.045	956.791
214.517	33.132	1067.166	1102.274	926.875	956.035
216.546	32.973	1064.053	1098.591	926.008	954.458
218.575	32.820	1062.430	1095.373	927.158	955.022
220.605	32.851	1064.790	1098.105	924.765	952.723
222.634	33.070	1065.163	1098.224	923.960	953.769
224.663	33.147	1060.120	1094.263	923.610	953.467
226.692	33.293	1058.208	1093.561	923.894	952.088
228.721	33.251	1057.938	1091.031	919.820	946.466
230.751	33.432	1056.614	1089.805	916.622	947.158
232.780	33.635	1057.757	1093.632	918.031	946.917
234.809	33.632	1055.327	1088.896	914.603	942.851
236.838	33.765	1053.579	1087.555	914.718	942.698
238.867	33.705	1052.087	1085.593	914.330	943.390
240.897	33.722	1053.798	1088.683	913.380	939.116
242.926	33.294	1050.400	1081.971	909.817	932.665
244.955	32.968	1046.589	1073.992	909.214	933.521
246.984	33.128	1046.913	1075.846	909.166	934.861
249.013	33.052	1041.491	1070.055	907.741	934.079
251.043	33.350	1044.284	1076.133	904.899	929.439
253.072	33.122	1043.239	1072.943	904.251	931.765
255.101	33.288	1040.990	1072.865	905.081	931.831
