DTS Sentinel unit serial number:	SN307009Multiplexer serial number:	multiplexer serial numberHardware model number:	HL4Software version number:	Halo DTS v1.0data status	okinstallation	NYAN30AUG2019differential loss correction	combinedforward channel	channel 1reverse channel	channel 1 reversedate	2003/01/11time	03:22:09forward acquisition time	60.05reverse acquisition time	60.05gamma	510.3900k internal	0.1898k external	0.1898temperature offset calibration	1.0000default loss term (dB/km)	0.3938temperature slope calibration	NaNmultiplexer offset coefficient	1.0000multiplexer slope coefficient	1.0000fibre end	1298.10T internal ref (°C)	34.25T ext. ref 1 (°C)	NaNT ext. ref 2 (°C)	NaNlength (m)	temperature (°C)	forward Stokes	forward anti-Stokes	reverse Stokes	reverse anti-Stokes-584.984	108.282	0.016	-0.018	0.056	-0.104
-582.954	700.000	-0.010	0.070	0.030	-0.002
-580.925	72.168	0.123	-0.104	-0.069	-0.003
-578.896	167.787	-0.096	0.152	-0.096	0.065
-576.867	8.182	-0.111	-0.048	-0.012	0.056
-574.838	189.949	0.034	-0.060	-0.113	-0.087
-572.808	626.048	0.024	0.127	0.063	-0.064
-570.779	367.636	-0.029	-0.094	-0.033	-0.163
-568.750	-49.438	0.033	-0.006	0.024	-0.148
-566.721	82.919	0.026	-0.024	0.059	-0.103
-564.692	-154.342	-0.043	-0.000	-0.006	0.061
-562.662	43.218	0.109	0.070	0.028	-0.029
-560.633	-73.340	-0.067	0.007	0.062	0.031
-558.604	96.718	0.035	-0.035	-0.063	-0.017
-556.575	700.000	-0.006	-0.093	0.055	0.030
-554.546	123.281	0.028	-0.034	0.071	-0.046
-552.517	51.799	-0.050	0.035	-0.113	0.011
-550.487	55.752	0.019	0.014	0.080	0.050
-548.458	18.034	0.088	-0.043	0.047	-0.063
-546.429	138.257	-0.052	0.070	0.056	-0.021
-544.400	364.582	-0.024	-0.078	0.113	0.080
-542.371	90.304	-0.032	0.031	0.111	0.028
-540.341	260.539	0.045	-0.107	-0.083	0.005
-538.312	66.886	0.121	-0.097	0.008	0.016
-536.283	-11.663	0.159	-0.052	0.079	-0.036
-534.254	212.053	-0.059	-0.117	-0.175	0.079
-532.225	255.853	0.077	0.182	-0.094	0.123
-530.195	53.395	-0.134	0.095	0.026	0.060
-528.166	21.034	-0.101	0.051	-0.002	0.000
-526.137	116.677	-0.036	0.043	0.082	0.009
-524.108	367.367	0.007	-0.023	0.104	-0.011
-522.079	-100.383	-0.115	-0.005	0.041	0.088
-520.049	251.696	-0.042	-0.098	-0.087	-0.050
-518.020	20.839	-0.063	0.032	0.138	-0.071
-515.991	-80.944	-0.097	-0.008	0.068	-0.034
-513.962	-73.941	-0.113	-0.011	-0.117	-0.139
-511.933	432.573	0.017	-0.064	0.006	0.062
-509.904	82.503	0.067	0.061	0.127	-0.017
-507.874	92.474	-0.010	0.009	0.177	0.033
-505.845	4.189	0.071	0.029	-0.071	-0.090
-503.816	54.289	0.051	-0.037	0.152	-0.057
-501.787	145.955	-0.043	0.061	0.093	0.062
-499.758	-200.000	-0.001	0.086	0.044	0.053
-497.728	31.458	-0.050	0.028	0.032	-0.007
-495.699	633.029	0.026	0.136	0.066	0.075
-493.670	65.908	-0.029	0.023	-0.003	-0.014
-491.641	89.140	-0.071	0.069	0.009	-0.135
-489.612	-5.179	-0.016	-0.006	-0.018	0.032
-487.582	296.586	-0.026	-0.069	-0.044	-0.135
-485.553	52.944	0.054	0.038	0.050	-0.064
-483.524	498.697	-0.030	0.130	0.017	0.019
-481.495	-41.091	0.089	-0.018	0.112	-0.096
-479.466	-85.867	0.120	-0.008	-0.119	-0.034
-477.437	61.853	-0.089	0.068	-0.009	0.076
-475.407	398.018	0.022	0.078	-0.054	0.028
-473.378	36.138	-0.070	-0.042	-0.113	0.062
-471.349	-200.000	0.002	0.044	0.058	0.032
-469.320	-49.552	0.102	0.017	-0.017	-0.104
-467.291	110.994	-0.047	0.053	-0.034	0.013
-465.261	42.831	0.061	-0.039	-0.037	-0.053
-463.232	460.508	-0.021	-0.084	0.038	-0.005
-461.203	229.421	0.019	-0.041	0.071	0.002
-459.174	74.213	0.097	-0.083	-0.060	0.022
-457.145	207.274	-0.049	-0.095	-0.033	-0.164
-455.115	382.306	0.075	-0.256	0.010	0.057
-453.086	142.672	0.049	0.068	-0.079	0.000
-451.057	284.244	0.033	-0.086	-0.018	-0.053
-449.028	-8.476	0.026	0.009	-0.092	-0.023
-446.999	7.019	-0.028	0.012	0.047	0.032
-444.969	34.070	0.070	0.041	0.068	0.014
-442.940	4.686	0.015	-0.006	0.078	0.026
-440.911	86.901	-0.087	-0.082	0.025	0.032
-438.882	481.635	0.033	-0.137	-0.063	0.041
-436.853	11.914	-0.038	-0.017	-0.029	0.054
-434.824	135.164	0.079	-0.104	0.098	-0.074
-432.794	72.470	-0.070	-0.059	-0.030	0.054
-430.765	79.805	0.142	-0.127	-0.027	0.054
-428.736	235.423	-0.053	0.115	0.054	-0.026
-426.707	700.000	-0.007	0.085	0.100	-0.089
-424.678	175.765	0.028	0.047	-0.009	0.097
-422.648	485.456	-0.024	0.100	0.073	-0.050
-420.619	134.051	0.046	-0.061	-0.024	-0.213
-418.590	677.302	-0.003	-0.017	-0.036	0.039
-416.561	163.796	-0.043	0.068	0.004	0.177
-414.532	141.076	-0.033	0.045	0.056	-0.083
-412.502	-7.755	0.046	-0.016	0.014	0.053
-410.473	280.429	-0.009	-0.023	-0.015	0.286
-408.444	218.011	-0.018	-0.036	-0.051	-0.025
-406.415	174.939	0.090	-0.149	0.009	0.069
-404.386	700.000	-0.007	-0.043	-0.038	0.103
-402.357	259.598	0.034	0.082	0.102	0.192
-400.327	151.930	-0.072	-0.106	-0.110	0.018
-398.298	380.683	0.042	-0.142	-0.083	-0.062
-396.269	-1.637	0.080	-0.030	-0.001	0.050
-394.240	73.400	-0.095	0.081	-0.094	-0.093
-392.211	29.488	0.163	0.090	-0.055	0.023
-390.181	118.082	0.117	0.139	-0.006	-0.063
-388.152	-32.743	-0.077	-0.018	-0.158	0.107
-386.123	67.189	-0.089	-0.071	-0.091	-0.072
-384.094	53.756	-0.029	-0.021	0.017	0.041
-382.065	127.513	-0.083	-0.105	0.055	0.026
-380.035	352.870	0.039	0.122	-0.104	-0.150
-378.006	362.076	0.026	0.084	0.056	-0.015
-375.977	116.262	-0.025	-0.030	-0.079	-0.058
-373.948	12.470	-0.103	0.047	-0.044	-0.098
-371.919	20.987	0.061	0.031	-0.007	0.044
-369.889	268.250	0.044	0.108	0.041	-0.052
-367.860	94.572	-0.055	-0.056	0.123	-0.162
-365.831	29.589	0.076	0.042	-0.107	-0.049
-363.802	48.437	-0.024	0.016	-0.005	0.078
-361.773	-0.736	0.090	-0.034	0.108	-0.058
-359.744	34.081	0.051	-0.030	0.042	0.017
-357.714	18.158	-0.103	-0.050	-0.078	-0.044
-355.685	44.322	0.061	0.040	0.153	-0.011
-353.656	42.112	-0.115	-0.073	0.031	0.155
-351.627	-200.000	0.002	0.037	-0.020	-0.137
-349.598	17.270	-0.086	0.041	0.047	-0.063
-347.568	197.548	-0.056	0.104	0.140	0.013
-345.539	380.106	-0.041	-0.138	0.077	-0.045
-343.510	55.344	-0.052	-0.037	0.073	-0.145
-341.481	119.088	-0.097	0.116	-0.119	-0.142
-339.452	155.740	0.107	0.160	0.134	0.032
-337.422	-23.574	0.099	-0.027	-0.105	-0.165
-335.393	-160.436	-0.079	0.000	0.079	0.049
-333.364	182.152	-0.021	-0.036	-0.041	-0.007
-331.335	13.742	-0.218	-0.100	0.138	0.165
-329.306	214.592	0.049	0.098	-0.068	0.105
-327.276	-38.814	-0.050	-0.010	-0.093	0.029
-325.247	700.000	0.015	-0.160	-0.023	0.000
-323.218	45.701	-0.078	-0.051	-0.034	0.064
-321.189	289.418	-0.066	0.173	0.039	0.086
-319.160	174.935	-0.042	-0.069	-0.088	0.047
-317.131	201.567	0.052	-0.097	-0.008	0.093
-315.101	700.000	0.018	0.113	-0.009	-0.015
-313.072	414.163	-0.018	0.067	0.092	-0.000
-311.043	225.515	0.055	-0.115	0.006	0.076
-309.014	-200.000	0.001	0.094	0.024	-0.073
-306.985	-30.662	-0.077	0.019	-0.015	-0.045
-304.955	498.299	0.019	-0.083	0.015	-0.100
-302.926	465.961	-0.030	0.120	-0.050	-0.149
-300.897	700.000	-0.006	-0.059	-0.221	0.094
-298.868	-55.317	0.116	0.017	-0.167	0.043
-296.839	38.056	-0.153	-0.093	0.089	0.117
-294.809	700.000	0.008	-0.052	0.012	0.001
-292.780	461.675	0.017	0.067	0.109	0.024
-290.751	-28.741	0.186	0.046	0.080	0.034
-288.722	377.810	0.045	0.150	-0.107	0.039
-286.693	-50.494	0.148	-0.024	0.119	-0.062
-284.664	91.168	-0.080	-0.079	0.032	0.112
-282.634	63.570	0.104	-0.081	0.036	-0.112
-280.605	526.398	-0.014	0.061	-0.036	0.038
-278.576	-23.119	-0.058	-0.016	-0.005	-0.113
-276.547	-3.491	-0.038	0.014	0.014	-0.067
-274.518	478.551	-0.033	-0.139	0.040	-0.119
-272.488	58.322	0.083	-0.062	0.130	0.053
-270.459	700.000	0.006	-0.085	0.078	-0.052
-268.430	59.120	0.048	-0.036	-0.037	-0.086
-266.401	177.250	0.039	-0.065	0.070	-0.093
-264.372	32.334	-0.071	-0.041	0.079	-0.066
-262.342	153.922	0.055	0.082	-0.008	0.027
-260.313	323.299	0.007	-0.021	0.080	-0.113
-258.284	167.003	-0.074	-0.118	0.106	-0.004
-256.255	151.656	-0.072	-0.105	-0.043	0.146
-254.226	-200.000	-0.007	0.181	-0.041	0.023
-252.196	115.772	0.042	-0.050	-0.042	-0.102
-250.167	700.000	0.003	-0.021	0.018	0.032
-248.138	22.594	0.124	0.064	-0.016	-0.111
-246.109	159.993	0.107	-0.164	-0.054	0.031
-244.080	66.857	-0.063	0.050	-0.062	-0.095
-242.051	165.946	-0.058	-0.092	-0.006	-0.007
-240.021	45.087	-0.069	0.045	-0.119	0.037
-237.992	18.784	-0.051	0.025	-0.032	0.033
-235.963	-61.351	0.183	0.024	0.183	-0.116
-233.934	533.561	-0.023	-0.104	0.019	0.050
-231.905	-36.883	-0.014	0.003	-0.025	-0.021
-229.875	13.206	0.077	0.035	-0.009	0.039
-227.846	700.000	0.011	-0.110	-0.125	0.002
-225.817	700.000	0.006	0.062	0.066	0.045
-223.788	-65.713	0.027	0.003	-0.023	0.169
-221.759	700.000	0.005	0.059	0.006	0.120
-219.729	522.113	-0.028	0.124	-0.002	0.064
-217.700	116.035	-0.022	-0.026	-0.026	-0.008
-215.671	-44.593	-0.051	0.010	0.170	0.107
-213.642	168.328	0.034	0.054	0.073	-0.025
-211.613	148.880	-0.144	0.207	0.035	-0.053
-209.584	189.164	-0.023	0.041	-0.020	-0.131
-207.554	124.052	-0.060	0.075	-0.068	-0.073
-205.525	99.745	-0.061	-0.063	-0.088	0.051
-203.496	34.786	0.074	0.043	-0.138	-0.064
-201.467	-15.611	0.048	-0.015	-0.083	0.047
-199.438	-45.245	-0.136	0.025	-0.057	0.150
-197.408	252.531	-0.049	-0.114	0.020	0.013
-195.379	46.724	0.129	-0.085	0.040	0.049
-193.350	220.838	0.043	0.088	-0.160	0.088
-191.321	133.375	0.088	0.115	-0.009	-0.039
-189.292	211.149	0.015	-0.030	-0.011	0.034
-187.262	73.521	0.033	-0.028	0.039	-0.041
-185.233	-4.530	-0.064	-0.023	-0.007	0.102
-183.204	169.709	0.015	0.024	0.005	-0.057
-181.175	21.869	0.070	-0.036	-0.122	0.018
-179.146	211.270	-0.019	0.037	-0.035	0.092
-177.116	700.000	0.019	0.188	0.031	-0.003
-175.087	56.891	-0.061	0.044	0.007	-0.051
-173.058	-40.729	-0.175	0.035	0.009	0.057
-171.029	-58.291	-0.147	-0.021	-0.148	-0.049
-169.000	406.082	0.030	0.110	0.011	-0.108
-166.971	29.568	0.098	-0.054	-0.150	0.057
-164.941	2.584	0.100	0.040	-0.036	-0.089
-162.912	14.951	-0.086	-0.040	0.080	0.173
-160.883	-28.381	0.138	-0.034	0.003	0.094
-158.854	146.940	-0.052	-0.074	-0.039	0.003
-156.825	40.863	0.056	0.035	0.045	0.031
-154.795	-43.173	0.117	0.022	0.050	-0.041
-152.766	-60.240	-0.113	-0.015	0.084	0.085
-150.737	59.754	-0.068	-0.051	-0.112	-0.107
-148.708	700.000	-0.011	-0.104	-0.068	0.068
-146.679	31.382	-0.027	-0.015	-0.074	0.007
-144.649	331.852	-0.029	0.085	-0.110	0.105
-142.620	700.000	0.020	0.134	-0.107	0.089
-140.591	-61.715	0.103	-0.013	0.041	0.004
-138.562	-92.133	0.045	-0.003	-0.090	-0.044
-136.533	-2.929	-0.062	-0.023	-0.089	-0.060
-134.503	259.953	0.036	0.085	0.095	0.042
-132.474	-49.301	-0.073	-0.012	0.050	0.084
-130.445	52.528	0.075	0.053	-0.067	0.130
-128.416	-18.091	-0.046	0.014	-0.056	0.048
-126.387	105.284	0.031	-0.034	0.035	-0.109
-124.358	99.763	0.086	0.090	-0.028	0.030
-122.328	-17.989	0.111	-0.033	-0.113	-0.024
-120.299	20.112	-0.060	-0.030	-0.013	-0.021
-118.270	-200.000	-0.005	0.122	0.054	-0.012
-116.241	61.168	0.063	-0.048	-0.058	-0.020
-114.212	95.963	-0.046	-0.047	-0.022	0.055
-112.182	123.000	-0.061	0.075	-0.100	0.097
-110.153	-69.668	-0.149	-0.016	0.015	-0.026
-108.124	-21.688	-0.098	-0.027	-0.013	0.083
-106.095	-19.549	0.048	0.014	0.053	0.106
-104.066	-8.612	-0.139	0.047	0.058	-0.110
-102.036	41.958	-0.049	-0.031	0.080	-0.032
-100.007	216.189	0.054	-0.128	-0.018	0.201
-97.978	258.847	0.038	-0.102	0.014	0.057
-95.949	-21.459	0.107	-0.037	-0.040	-0.029
-93.920	164.351	0.034	-0.065	-0.020	0.005
-91.891	53.336	-0.066	-0.072	-0.063	0.049
-89.861	132.778	0.011	-0.021	-0.090	-0.014
-87.832	-78.927	-0.239	0.024	-0.042	-0.088
-85.803	-66.183	0.177	0.026	-0.048	-0.078
-83.774	430.220	0.012	-0.075	-0.025	0.009
-81.745	394.168	-0.031	0.149	-0.022	0.041
-79.715	63.299	-0.088	-0.081	0.163	0.108
-77.686	87.732	-0.063	-0.064	0.014	-0.080
-75.657	-97.585	-0.068	0.004	0.040	-0.037
-73.628	116.381	-0.062	-0.100	-0.100	-0.045
-71.599	34.164	-0.082	0.100	0.081	-0.045
-69.569	12.121	0.060	0.038	-0.002	0.038
-67.540	48.381	0.053	-0.061	0.014	-0.031
-65.511	210.147	0.019	-0.057	0.011	0.011
-63.482	-26.245	0.043	-0.017	-0.008	-0.074
-61.453	559.941	0.440	-3.182	0.268	-3.104
-59.423	65.704	-1.139	1.659	-1.115	1.543
-57.394	30.482	-0.381	0.315	-0.461	0.185
-55.365	194.858	-13.101	-36.639	-13.171	-35.882
-53.336	700.000	97.542	903.846	95.364	887.482
-51.307	84.464	2349.870	3464.566	2351.060	3465.243
-49.278	81.042	1876.255	2137.173	1880.720	2149.133
-47.248	85.614	1760.740	2246.663	1759.264	2240.902
-45.219	65.502	1769.601	1966.154	1761.021	1959.536
-43.190	66.296	1735.114	1891.072	1725.723	1883.972
-41.161	61.323	1730.701	1883.974	1722.295	1878.700
-39.132	74.942	1728.749	1881.586	1721.630	1876.705
-37.102	80.104	1724.170	1876.006	1718.439	1873.235
-35.073	45.602	1721.715	1874.540	1715.829	1871.323
-33.044	36.774	1719.235	1870.542	1712.429	1865.380
-31.015	57.059	1716.569	1868.051	1707.500	1861.264
-28.986	62.535	1714.468	1864.447	1707.313	1858.847
-26.956	64.081	1711.645	1860.922	1705.600	1857.779
-24.927	76.291	1708.482	1856.000	1703.984	1855.116
-22.898	69.471	1705.598	1854.045	1701.159	1851.769
-20.869	106.156	1704.838	1852.727	1697.733	1846.488
-18.840	-89.495	1702.074	1849.024	1694.426	1844.100
-16.810	-32.595	1699.588	1845.498	1694.129	1842.159
-14.781	40.089	1697.341	1843.556	1691.403	1839.634
-12.752	-29.322	1695.634	1841.343	1689.952	1837.237
-10.723	46.654	1692.170	1838.308	1686.701	1833.771
-8.694	34.400	1690.659	1835.634	1685.518	1832.668
-6.665	32.325	1688.346	1833.978	1682.295	1830.608
-4.635	38.450	1685.445	1829.449	1682.345	1830.208
-2.606	38.468	1684.283	1828.109	1680.548	1828.199
-0.577	38.374	1681.883	1823.730	1678.561	1826.517
1.452	37.212	1645.759	1762.996	1665.514	1799.757
3.481	33.737	1374.767	1418.621	1417.799	1462.233
5.511	34.059	1252.694	1297.177	1111.682	1146.589
7.540	34.029	1234.216	1276.793	1082.952	1121.023
9.569	33.827	1217.218	1256.477	1057.188	1090.611
11.598	33.786	1212.443	1251.264	1050.745	1084.371
13.627	33.684	1210.100	1248.598	1049.574	1083.270
15.657	33.790	1211.900	1250.882	1051.170	1085.114
17.686	33.795	1209.148	1247.047	1048.409	1081.076
19.715	33.819	1207.298	1245.442	1047.497	1080.865
21.744	33.776	1204.988	1242.020	1046.848	1079.406
23.773	33.805	1199.093	1236.455	1043.591	1076.017
25.802	33.808	1197.258	1234.256	1040.791	1073.079
27.832	33.736	1193.679	1229.125	1038.180	1069.264
29.861	33.288	1187.143	1216.572	1034.609	1046.311
31.890	25.405	1166.077	1094.590	1008.003	920.971
33.919	22.321	1146.350	1039.333	996.392	894.163
35.948	22.151	1142.776	1030.822	990.067	882.931
37.978	20.858	1136.820	1019.526	991.748	883.945
40.007	18.932	1128.767	1011.189	989.142	878.984
42.036	19.676	1129.853	1013.708	986.615	877.846
44.065	18.253	1130.268	1013.243	987.636	878.876
46.094	17.730	1127.181	1011.963	985.957	878.114
48.124	17.727	1127.612	1011.938	984.828	876.690
50.153	17.559	1124.896	1007.613	984.629	876.887
52.182	17.555	1121.147	1004.032	983.078	874.488
54.211	17.643	1118.530	1002.214	981.984	880.061
56.240	18.232	1119.584	1010.618	1001.033	986.493
58.270	26.284	1139.086	1129.610	1011.150	1037.969
60.299	29.481	1147.563	1179.668	1011.729	1051.706
62.328	30.538	1151.170	1197.322	1013.739	1061.173
64.357	31.138	1153.462	1207.932	1014.984	1065.950
66.386	31.108	1156.401	1215.466	1012.552	1065.062
68.415	30.766	1156.561	1216.988	1010.882	1062.927
70.445	25.736	1155.247	1215.764	1006.501	1056.503
72.474	20.683	1150.133	1206.996	1008.325	1057.954
74.503	19.636	1148.698	1205.604	1004.809	1053.253
76.532	19.522	1147.708	1202.709	1004.499	1049.921
78.561	19.111	1142.820	1192.850	1001.494	1045.619
80.591	19.293	1140.398	1191.340	1001.811	1047.622
82.620	19.365	1142.728	1194.905	1001.626	1048.027
84.649	19.549	1138.154	1191.950	1000.225	1045.890
86.678	19.489	1138.766	1190.963	999.545	1043.328
88.707	19.250	1138.027	1187.020	997.639	1038.739
90.737	19.225	1135.666	1183.235	991.189	1028.906
92.766	19.363	1130.205	1173.223	989.427	1026.275
94.795	19.742	1129.088	1170.622	991.745	1028.563
96.824	25.328	1126.581	1168.369	991.581	1028.379
98.853	30.373	1128.302	1171.817	990.961	1030.010
100.882	32.107	1127.386	1172.041	990.707	1032.094
102.912	32.810	1125.469	1173.710	986.981	1029.989
104.941	33.250	1123.177	1172.350	984.171	1028.072
106.970	33.583	1123.564	1173.487	984.771	1030.638
108.999	33.814	1121.804	1172.324	986.231	1026.856
111.028	33.182	1120.823	1166.266	984.234	1024.159
113.058	33.139	1121.471	1167.666	981.614	1023.835
115.087	33.352	1120.563	1169.477	981.320	1024.356
117.116	33.098	1118.861	1167.908	980.309	1023.408
119.145	32.989	1116.096	1165.216	976.366	1019.322
121.174	33.209	1112.718	1163.041	974.616	1016.868
123.204	33.283	1112.665	1162.223	976.919	1018.075
125.233	33.168	1111.495	1160.143	974.251	1016.948
127.262	33.205	1115.183	1165.607	971.270	1015.242
129.291	33.100	1111.359	1161.365	973.488	1016.051
131.320	32.770	1110.125	1159.075	968.633	1010.105
133.350	32.590	1109.735	1157.389	967.092	1009.495
135.379	32.586	1104.497	1152.445	969.186	1007.692
137.408	32.389	1101.896	1145.583	964.590	1002.218
139.437	32.451	1098.491	1140.309	964.566	1003.022
141.466	32.775	1099.994	1143.289	964.884	1000.705
143.495	32.760	1099.947	1140.477	959.527	993.054
145.525	32.702	1098.681	1136.809	958.987	994.005
147.554	32.898	1094.994	1134.206	958.995	994.291
149.583	32.679	1094.377	1133.676	955.339	991.848
151.612	32.683	1091.235	1132.020	953.663	989.738
153.641	32.876	1090.442	1130.994	954.078	988.396
155.671	32.961	1090.972	1130.369	950.740	981.689
157.700	32.750	1088.422	1124.686	949.647	981.283
159.729	32.850	1087.537	1124.314	952.719	985.820
161.758	33.090	1086.242	1125.265	949.993	981.946
163.787	32.953	1085.682	1124.527	946.411	976.273
165.817	32.947	1085.759	1122.918	944.114	975.492
167.846	33.120	1083.390	1121.305	942.565	977.258
169.875	33.166	1083.504	1122.729	942.851	978.687
171.904	33.265	1080.044	1120.674	943.329	978.359
173.933	33.235	1080.233	1120.944	944.374	977.630
175.963	32.942	1079.245	1117.970	939.025	971.579
177.992	32.701	1078.308	1116.408	937.661	969.526
180.021	32.654	1075.713	1113.041	937.873	969.995
182.050	32.638	1070.077	1106.974	938.520	972.642
184.079	32.702	1069.932	1109.452	934.803	967.120
186.108	32.614	1067.686	1105.362	931.726	965.105
188.138	32.853	1065.817	1104.406	931.846	967.553
190.167	33.044	1068.589	1108.844	931.921	966.982
192.196	33.117	1067.377	1108.434	932.000	966.084
194.225	33.012	1065.527	1106.435	929.878	967.161
196.254	33.172	1066.554	1110.577	929.296	966.188
198.284	33.153	1065.858	1109.483	928.215	963.617
200.313	33.099	1064.367	1106.382	927.484	962.156
202.342	33.051	1062.897	1102.522	924.405	956.323
204.371	32.885	1057.845	1095.612	920.909	955.397
206.400	33.043	1057.490	1096.748	920.973	953.811
208.430	33.080	1059.843	1097.439	920.616	952.660
210.459	33.122	1058.855	1095.429	919.418	951.032
212.488	33.189	1054.777	1092.044	916.805	947.304
214.517	33.030	1052.496	1088.342	916.907	946.519
216.546	32.978	1049.523	1084.804	916.390	944.881
218.575	32.753	1048.140	1081.134	917.077	945.747
220.605	32.852	1049.868	1083.642	914.448	943.892
222.634	33.020	1050.767	1084.242	913.873	944.660
224.663	33.212	1045.569	1080.900	913.223	943.739
226.692	33.197	1043.721	1079.355	913.406	942.440
228.721	33.146	1043.766	1077.280	909.899	937.517
230.751	33.246	1042.198	1075.705	906.613	938.134
232.780	33.522	1043.363	1079.605	908.033	937.679
234.809	33.555	1040.928	1074.982	904.659	933.492
236.838	33.649	1039.035	1073.136	904.725	933.971
238.867	33.629	1037.519	1071.939	903.884	934.487
240.897	33.618	1039.241	1074.845	903.561	929.949
242.926	33.142	1036.560	1068.172	900.033	923.821
244.955	32.902	1031.894	1060.756	898.941	925.038
246.984	32.980	1033.136	1062.331	899.229	924.943
249.013	32.981	1027.404	1056.745	897.595	925.003
251.043	33.237	1030.107	1062.305	895.016	920.875
253.072	33.066	1029.231	1059.459	894.536	922.581
255.101	33.208	1026.972	1059.625	895.074	922.745
