DTS Sentinel unit serial number:	SN307009Multiplexer serial number:	multiplexer serial numberHardware model number:	HL4Software version number:	Halo DTS v1.0data status	okinstallation	NYAN30AUG2019differential loss correction	combinedforward channel	channel 1reverse channel	channel 1 reversedate	2003/01/11time	03:14:10forward acquisition time	60.05reverse acquisition time	60.05gamma	510.3900k internal	0.1898k external	0.1898temperature offset calibration	1.0000default loss term (dB/km)	0.3938temperature slope calibration	NaNmultiplexer offset coefficient	1.0000multiplexer slope coefficient	1.0000fibre end	1298.10T internal ref (°C)	34.25T ext. ref 1 (°C)	NaNT ext. ref 2 (°C)	NaNlength (m)	temperature (°C)	forward Stokes	forward anti-Stokes	reverse Stokes	reverse anti-Stokes-584.984	90.164	-0.113	-0.136	-0.036	0.062
-582.954	-2.521	0.025	0.012	-0.062	-0.032
-580.925	34.242	-0.021	-0.015	0.078	-0.100
-578.896	-84.874	0.042	0.004	0.042	-0.018
-576.867	-200.000	-0.001	0.053	0.123	0.043
-574.838	53.447	0.060	-0.052	0.095	0.126
-572.808	50.692	0.064	-0.055	-0.030	-0.038
-570.779	84.048	-0.084	0.097	-0.037	-0.117
-568.750	700.000	0.004	0.070	0.012	-0.031
-566.721	37.554	0.097	0.073	0.026	-0.074
-564.692	303.628	-0.060	-0.206	0.024	0.018
-562.662	-123.451	0.093	-0.002	0.095	-0.024
-560.633	102.097	-0.083	-0.109	0.013	0.055
-558.604	525.794	-0.023	-0.128	-0.159	-0.038
-556.575	567.051	-0.028	0.169	-0.102	0.199
-554.546	110.121	-0.021	0.029	-0.040	-0.035
-552.517	-200.000	0.001	-0.026	-0.163	-0.043
-550.487	220.010	-0.022	-0.056	0.062	-0.077
-548.458	-26.598	0.076	0.024	-0.122	-0.160
-546.429	33.287	-0.100	0.072	0.031	0.026
-544.400	327.174	-0.025	-0.093	0.036	0.120
-542.371	124.590	-0.087	-0.133	0.026	-0.045
-540.341	137.771	-0.036	0.061	0.013	-0.126
-538.312	7.310	0.081	-0.043	-0.019	0.044
-536.283	63.175	-0.081	0.078	0.055	-0.084
-534.254	81.680	-0.089	-0.101	-0.114	0.102
-532.225	326.068	-0.030	-0.111	-0.003	0.129
-530.195	107.935	-0.062	-0.085	0.050	0.002
-528.166	293.512	0.027	0.089	0.026	0.046
-526.137	265.048	0.020	-0.061	-0.077	-0.095
-524.108	-17.548	0.229	-0.085	0.012	0.009
-522.079	337.302	-0.008	0.029	-0.099	0.025
-520.049	-43.877	-0.052	-0.012	-0.112	-0.005
-518.020	-90.124	0.017	-0.001	0.051	-0.074
-515.991	-200.000	0.000	0.057	0.009	-0.211
-513.962	700.000	-0.006	0.053	-0.064	-0.025
-511.933	44.306	0.075	0.061	-0.171	0.040
-509.904	276.226	0.021	0.065	0.124	-0.032
-507.874	47.965	0.105	-0.088	0.126	-0.067
-505.845	-14.503	-0.142	0.055	-0.090	-0.093
-503.816	237.301	-0.079	0.216	0.049	0.048
-501.787	200.496	0.049	-0.114	-0.152	0.011
-499.758	-0.246	-0.015	0.007	0.060	-0.136
-497.728	700.000	-0.006	0.080	-0.007	0.057
-495.699	360.117	-0.025	-0.098	0.050	0.053
-493.670	-39.361	-0.106	0.027	-0.072	0.066
-491.641	68.354	-0.081	-0.082	0.017	0.006
-489.612	-2.708	-0.027	0.012	0.083	0.049
-487.582	-1.912	-0.172	0.080	-0.033	-0.052
-485.553	13.329	0.014	0.008	-0.027	0.098
-483.524	-10.848	-0.158	-0.065	0.025	0.072
-481.495	380.389	0.026	-0.111	0.017	-0.059
-479.466	161.959	0.016	-0.030	-0.027	-0.098
-477.437	441.846	0.025	0.122	-0.092	0.089
-475.407	-4.424	0.083	-0.038	0.004	-0.077
-473.378	11.128	-0.122	0.067	0.003	0.024
-471.349	81.101	-0.017	0.019	0.081	-0.078
-469.320	-16.300	-0.027	0.010	0.009	-0.087
-467.291	-73.912	-0.107	0.013	0.075	0.005
-465.261	-45.846	-0.096	-0.022	0.011	-0.158
-463.232	124.193	-0.048	-0.073	-0.093	-0.088
-461.203	-120.281	0.164	0.004	-0.144	0.105
-459.174	514.412	0.010	-0.057	0.008	-0.077
-457.145	132.102	-0.119	0.193	0.090	-0.082
-455.115	1.189	-0.120	-0.058	-0.027	-0.019
-453.086	156.987	0.050	-0.093	0.026	-0.041
-451.057	-131.380	0.050	0.001	-0.083	0.072
-449.028	103.091	0.077	-0.102	0.064	0.137
-446.999	-43.075	0.059	-0.014	-0.124	-0.037
-444.969	512.054	-0.007	-0.037	-0.110	0.011
-442.940	15.436	0.068	0.040	0.034	-0.016
-440.911	700.000	0.008	-0.129	0.056	-0.103
-438.882	-200.000	-0.003	0.091	-0.020	0.079
-436.853	51.946	0.087	-0.076	0.080	-0.156
-434.824	700.000	0.006	-0.116	0.114	-0.105
-432.794	405.586	-0.001	-0.003	-0.154	-0.019
-430.765	22.192	-0.099	0.063	0.014	0.041
-428.736	413.701	0.025	-0.113	-0.001	0.035
-426.707	36.100	0.067	0.050	-0.133	0.058
-424.678	35.451	-0.104	0.076	0.029	0.115
-422.648	495.273	0.008	0.042	0.022	-0.003
-420.619	267.468	-0.030	-0.091	-0.007	0.065
-418.590	112.473	0.076	-0.108	0.026	0.070
-416.561	48.393	0.053	0.045	0.032	0.028
-414.532	30.056	-0.057	0.040	-0.021	-0.030
-412.502	229.117	0.039	0.103	-0.075	-0.005
-410.473	145.249	-0.070	0.122	0.027	0.113
-408.444	335.914	0.023	0.086	0.055	0.019
-406.415	142.508	-0.056	-0.097	0.028	-0.017
-404.386	300.978	-0.032	0.110	0.047	-0.076
-402.357	3.699	-0.053	-0.027	-0.014	0.013
-400.327	592.111	0.019	-0.118	0.049	0.150
-398.298	4.805	0.055	-0.028	0.062	-0.060
-396.269	46.779	-0.085	-0.070	0.011	0.138
-394.240	208.763	0.048	0.117	-0.020	0.025
-392.211	420.660	0.008	-0.039	-0.048	0.049
-390.181	129.894	0.039	-0.062	-0.104	0.075
-388.152	700.000	0.003	-0.058	-0.113	-0.052
-386.123	700.000	0.017	0.125	0.058	-0.170
-384.094	588.236	0.033	0.204	-0.009	-0.063
-382.065	98.187	0.080	-0.102	0.021	0.030
-380.035	700.000	-0.006	0.056	-0.053	-0.153
-378.006	243.933	0.009	-0.026	0.034	-0.040
-375.977	700.000	-0.015	-0.242	0.032	0.021
-373.948	371.549	0.024	0.100	-0.043	-0.017
-371.919	24.604	-0.098	-0.064	-0.029	0.053
-369.889	-22.047	0.120	-0.041	-0.060	-0.054
-367.860	29.245	-0.040	-0.028	0.063	0.064
-365.831	700.000	0.014	-0.128	0.032	-0.198
-363.802	-36.495	0.183	-0.049	0.069	0.043
-361.773	158.853	0.086	0.162	0.088	0.034
-359.744	-200.000	-0.003	0.146	-0.019	0.163
-357.714	0.648	0.121	0.058	-0.072	-0.085
-355.685	-73.676	-0.120	0.014	0.138	-0.017
-353.656	535.694	-0.017	-0.095	-0.104	-0.010
-351.627	110.763	0.043	0.061	-0.015	-0.016
-349.598	-102.062	-0.094	0.005	0.150	0.043
-347.568	432.901	-0.030	-0.141	-0.033	-0.011
-345.539	26.087	0.041	0.027	-0.110	0.104
-343.510	103.377	0.075	-0.099	-0.010	-0.018
-341.481	22.235	-0.069	-0.044	0.020	0.086
-339.452	113.754	0.049	0.071	-0.103	0.131
-337.422	-21.990	0.006	0.002	-0.069	0.118
-335.393	-200.000	-0.002	0.088	-0.132	-0.075
-333.364	-200.000	0.008	-0.182	-0.047	0.077
-331.335	-3.208	-0.094	-0.043	0.069	0.018
-329.306	7.588	-0.038	0.020	-0.017	-0.013
-327.276	-37.888	0.154	0.040	0.012	-0.087
-325.247	156.043	-0.020	-0.036	-0.073	-0.072
-323.218	85.323	0.011	0.013	-0.124	0.015
-321.189	302.405	0.020	0.067	-0.027	0.052
-319.160	-31.849	0.098	-0.029	-0.064	0.080
-317.131	-45.935	0.035	0.008	-0.017	-0.030
-315.101	-82.236	-0.146	0.014	0.011	0.141
-313.072	-40.497	-0.044	-0.011	0.042	-0.036
-311.043	700.000	0.007	0.111	0.029	0.057
-309.014	94.873	0.041	-0.051	-0.000	0.055
-306.985	-111.361	-0.148	0.005	0.018	-0.099
-304.955	700.000	0.014	-0.155	-0.154	0.025
-302.926	-200.000	-0.002	0.109	0.028	0.021
-300.897	23.135	0.132	0.085	-0.009	-0.043
-298.868	104.588	0.120	0.161	0.089	-0.030
-296.839	-10.212	0.055	0.023	0.056	0.074
-294.809	73.986	-0.072	-0.077	-0.034	-0.116
-292.780	87.663	0.101	-0.119	0.035	0.158
-290.751	229.537	-0.054	-0.144	-0.010	-0.127
-288.722	700.000	0.004	-0.050	-0.026	0.012
-286.693	308.684	0.011	-0.039	0.057	-0.002
-284.664	159.119	-0.063	0.119	-0.027	-0.019
-282.634	-134.176	0.200	-0.003	-0.021	-0.110
-280.605	183.979	-0.084	-0.180	-0.053	0.039
-278.576	700.000	-0.000	0.006	-0.031	0.066
-276.547	160.586	0.024	-0.045	0.096	0.026
-274.518	2.777	0.050	-0.025	0.021	0.076
-272.488	79.575	-0.024	0.027	-0.016	-0.034
-270.459	193.929	-0.050	0.114	0.052	-0.003
-268.430	99.594	-0.086	-0.112	-0.055	-0.079
-266.401	-42.159	0.048	0.012	-0.013	0.035
-264.372	64.574	-0.109	-0.106	-0.106	0.115
-262.342	-11.227	-0.165	-0.067	0.167	0.003
-260.313	-13.608	0.112	-0.044	0.043	0.005
-258.284	68.086	0.102	0.102	-0.068	0.070
-256.255	-8.487	0.031	0.013	-0.005	0.248
-254.226	122.198	-0.050	-0.075	0.044	-0.171
-252.196	700.000	0.002	0.031	0.081	0.062
-250.167	79.855	-0.079	-0.088	0.015	-0.054
-248.138	89.084	-0.027	-0.032	0.071	0.069
-246.109	239.921	-0.031	-0.085	-0.007	-0.113
-244.080	-134.320	-0.109	-0.001	0.047	0.059
-242.051	-28.957	-0.100	-0.031	-0.046	-0.108
-240.021	-2.925	0.034	0.016	-0.013	-0.060
-237.992	416.925	-0.003	-0.012	0.083	-0.045
-235.963	-1.207	0.095	0.045	0.083	-0.028
-233.934	21.499	0.059	-0.037	0.169	0.154
-231.905	-45.146	-0.080	0.018	-0.035	-0.104
-229.875	42.012	-0.075	0.059	-0.019	0.127
-227.846	148.123	0.030	-0.054	-0.034	0.073
-225.817	62.473	-0.073	-0.070	0.018	-0.062
-223.788	143.559	-0.071	0.122	-0.154	0.016
-221.759	-37.938	-0.024	-0.006	-0.062	0.074
-219.729	294.966	0.048	0.159	0.073	0.041
-217.700	71.296	-0.106	-0.110	0.182	0.130
-215.671	101.850	0.099	-0.131	0.122	-0.061
-213.642	27.095	0.203	0.136	0.082	-0.055
-211.613	290.573	-0.035	0.115	0.044	-0.046
-209.584	-17.921	0.084	0.031	0.043	-0.037
-207.554	144.688	-0.048	-0.083	0.123	-0.108
-205.525	61.553	0.105	0.099	-0.021	-0.030
-203.496	70.917	-0.097	0.100	-0.065	0.108
-201.467	-72.789	0.124	0.015	-0.035	-0.099
-199.438	630.154	0.010	0.063	-0.054	-0.068
-197.408	56.241	0.082	0.074	0.079	0.098
-195.379	-53.577	-0.054	0.010	0.019	-0.055
-193.350	235.999	0.060	0.162	-0.064	-0.156
-191.321	141.019	-0.084	0.144	0.047	0.001
-189.292	52.323	-0.064	0.056	-0.055	-0.044
-187.262	-62.387	0.029	0.005	-0.175	-0.044
-185.233	334.231	-0.009	0.035	-0.082	0.150
-183.204	57.895	-0.025	-0.023	0.110	0.053
-181.175	-200.000	-0.002	-0.098	0.003	0.006
-179.146	205.905	-0.019	0.046	-0.158	0.021
-177.116	80.151	0.049	-0.055	0.084	-0.113
-175.087	-60.182	0.141	0.024	0.074	0.057
-173.058	189.566	-0.013	0.029	-0.114	0.026
-171.029	82.776	-0.125	0.143	0.144	-0.032
-169.000	-122.791	-0.123	-0.003	0.090	-0.094
-166.971	-16.441	0.051	0.019	-0.037	0.110
-164.941	24.302	0.072	0.046	0.040	0.014
-162.912	-21.836	0.123	-0.043	0.153	-0.035
-160.883	55.520	0.036	-0.033	0.060	0.013
-158.854	235.574	0.041	0.110	0.019	0.117
-156.825	-54.571	-0.084	0.016	0.051	0.103
-154.795	637.853	-0.024	0.159	-0.026	-0.015
-152.766	42.714	-0.075	-0.059	0.127	0.062
-150.737	-12.706	0.030	-0.012	-0.036	0.023
-148.708	-200.000	-0.003	-0.126	0.066	0.011
-146.679	27.792	0.063	0.043	-0.004	-0.040
-144.649	30.655	-0.160	-0.112	0.053	-0.072
-142.620	113.748	0.046	0.065	-0.041	-0.046
-140.591	12.366	-0.024	0.013	0.006	0.081
-138.562	-10.025	0.075	0.031	-0.072	0.077
-136.533	30.778	-0.124	-0.087	-0.045	-0.029
-134.503	4.426	-0.136	0.069	0.056	0.046
-132.474	247.090	0.036	0.100	0.024	0.061
-130.445	700.000	-0.015	0.124	-0.084	-0.037
-128.416	78.894	0.085	-0.094	0.183	0.040
-126.387	362.560	-0.026	0.107	0.071	-0.043
-124.358	33.917	-0.070	0.050	-0.025	-0.016
-122.328	-24.366	-0.103	0.034	0.012	-0.016
-120.299	-94.442	0.069	0.005	-0.070	0.087
-118.270	309.511	-0.007	0.024	-0.077	-0.018
-116.241	156.701	-0.041	0.077	0.127	0.037
-114.212	-101.023	0.047	-0.003	0.043	-0.123
-112.182	477.649	-0.011	0.054	-0.124	-0.151
-110.153	-4.112	0.092	0.041	-0.169	0.038
-108.124	79.141	0.098	0.109	0.027	-0.116
-106.095	-37.890	-0.178	0.047	0.056	0.023
-104.066	-98.318	0.150	-0.009	-0.032	-0.006
-102.036	130.409	-0.020	0.032	0.041	0.023
-100.007	-12.890	0.060	-0.026	0.055	-0.095
-97.978	-65.987	-0.115	-0.018	-0.065	-0.063
-95.949	700.000	-0.004	-0.026	0.155	-0.042
-93.920	331.942	-0.023	0.075	0.008	0.049
-91.891	-58.681	-0.033	0.007	-0.120	-0.059
-89.861	115.343	-0.078	-0.104	0.007	-0.031
-87.832	403.285	-0.021	0.080	-0.017	-0.112
-85.803	27.295	0.056	-0.055	0.033	0.065
-83.774	-23.729	-0.022	0.009	-0.053	-0.070
-81.745	78.773	-0.068	-0.111	-0.075	0.037
-79.715	-15.638	-0.046	0.024	0.128	-0.041
-77.686	21.658	-0.135	-0.084	-0.119	-0.037
-75.657	-69.601	-0.131	0.018	0.000	-0.025
-73.628	-200.000	0.008	-0.188	-0.032	-0.115
-71.599	291.098	-0.053	-0.186	0.204	-0.003
-69.569	700.000	0.005	0.070	-0.102	-0.053
-67.540	-26.863	0.020	-0.006	0.023	-0.024
-65.511	-44.286	-0.171	-0.051	0.127	-0.043
-63.482	73.203	-0.037	0.050	0.017	0.001
-61.453	700.000	0.213	-3.138	0.271	-3.108
-59.423	107.405	-1.075	1.559	-1.210	1.673
-57.394	9.111	-0.455	0.263	-0.374	0.108
-55.365	224.590	-14.325	-36.620	-14.155	-36.000
-53.336	700.000	100.027	910.402	98.064	892.071
-51.307	134.360	2353.101	3461.601	2355.204	3462.992
-49.278	81.604	1876.997	2139.308	1881.611	2148.796
-47.248	105.579	1762.904	2250.330	1761.294	2242.821
-45.219	60.033	1771.685	1969.682	1763.349	1961.326
-43.190	54.224	1736.551	1895.285	1727.840	1885.832
-41.161	64.080	1732.482	1887.562	1725.117	1880.033
-39.132	48.312	1730.638	1884.800	1724.138	1878.841
-37.102	46.269	1726.144	1879.827	1720.952	1875.278
-35.073	83.458	1723.740	1878.200	1718.157	1873.302
-33.044	86.634	1720.762	1874.325	1714.762	1867.465
-31.015	71.834	1718.561	1871.912	1710.174	1863.485
-28.986	97.525	1716.318	1867.626	1709.497	1861.080
-26.956	69.050	1713.376	1864.072	1707.946	1858.994
-24.927	40.556	1710.496	1860.395	1706.663	1857.163
-22.898	91.410	1707.754	1857.787	1703.992	1852.969
-20.869	208.395	1706.723	1855.998	1699.994	1848.647
-18.840	-129.583	1704.118	1852.345	1696.916	1846.395
-16.810	-33.632	1701.767	1849.291	1696.141	1843.998
-14.781	39.958	1699.421	1847.454	1693.793	1841.321
-12.752	-29.202	1697.499	1845.435	1692.506	1839.181
-10.723	46.766	1693.663	1841.571	1689.077	1834.972
-8.694	34.405	1692.329	1839.626	1687.515	1834.091
-6.665	32.294	1690.693	1836.733	1684.813	1832.229
-4.635	38.445	1687.357	1832.801	1685.355	1831.745
-2.606	38.387	1687.016	1831.379	1683.298	1829.906
-0.577	38.436	1684.330	1827.690	1680.634	1828.167
1.452	37.335	1647.299	1766.326	1668.259	1801.244
3.481	33.823	1375.510	1420.706	1419.620	1462.214
5.511	34.071	1254.086	1299.513	1114.292	1148.875
7.540	33.933	1235.748	1278.629	1085.814	1123.429
9.569	33.798	1218.571	1258.789	1060.167	1093.093
11.598	33.763	1214.062	1253.495	1053.194	1085.918
13.627	33.760	1211.206	1251.062	1052.222	1086.014
15.657	33.823	1213.208	1253.002	1053.735	1087.663
17.686	33.801	1210.704	1249.420	1051.028	1083.646
19.715	33.845	1209.094	1247.705	1049.795	1082.532
21.744	33.650	1206.451	1243.439	1049.778	1081.867
23.773	33.771	1200.315	1238.282	1046.629	1078.369
25.802	33.831	1198.173	1235.981	1043.585	1075.318
27.832	33.822	1194.762	1231.346	1041.277	1071.989
29.861	33.324	1187.552	1218.112	1037.335	1048.069
31.890	25.437	1166.925	1095.622	1010.557	922.241
33.919	22.311	1147.074	1040.324	999.559	895.624
35.948	22.266	1143.656	1032.801	993.070	885.239
37.978	20.833	1137.952	1020.670	994.697	886.750
40.007	18.847	1129.688	1013.062	991.767	880.746
42.036	19.528	1130.909	1015.019	989.326	879.992
44.065	18.232	1131.003	1014.328	990.075	880.127
46.094	17.681	1128.661	1013.438	988.859	879.295
48.124	17.633	1128.984	1012.677	987.520	878.489
50.153	17.580	1125.907	1009.292	987.291	878.508
52.182	17.601	1122.198	1005.907	985.623	876.687
54.211	17.599	1119.747	1003.451	984.453	882.308
56.240	18.228	1120.444	1012.265	1003.948	988.390
58.270	26.290	1140.389	1132.067	1014.152	1041.223
60.299	29.398	1148.752	1181.002	1014.984	1054.426
62.328	30.447	1152.424	1199.046	1016.938	1063.767
64.357	31.079	1154.740	1209.911	1017.988	1067.967
66.386	31.066	1157.679	1217.910	1015.842	1067.412
68.415	30.795	1157.940	1219.863	1013.918	1065.489
70.445	25.779	1156.551	1218.015	1009.449	1059.454
72.474	20.751	1151.051	1209.443	1011.493	1060.334
74.503	19.590	1149.914	1207.764	1007.542	1055.638
76.532	19.456	1148.939	1204.904	1006.991	1051.977
78.561	19.156	1143.374	1195.457	1004.581	1047.976
80.591	19.245	1141.181	1193.323	1004.686	1051.236
82.620	19.465	1144.122	1197.315	1004.608	1051.273
84.649	19.567	1139.375	1193.610	1002.703	1049.216
86.678	19.483	1140.122	1192.972	1002.411	1046.089
88.707	19.320	1138.732	1189.265	1000.286	1041.418
90.737	19.152	1136.943	1185.212	993.716	1031.177
92.766	19.353	1130.960	1175.377	992.166	1028.814
94.795	19.750	1130.113	1172.837	994.284	1030.911
96.824	25.390	1127.548	1170.635	994.621	1030.947
98.853	30.374	1129.503	1173.532	993.736	1032.555
100.882	32.249	1128.370	1174.315	993.531	1035.243
102.912	32.930	1126.607	1175.554	990.031	1032.463
104.941	33.387	1124.272	1174.741	987.125	1030.002
106.970	33.679	1124.967	1176.305	987.216	1033.137
108.999	33.706	1122.856	1173.799	989.073	1029.830
111.028	33.181	1122.041	1168.810	986.827	1026.302
113.058	33.136	1122.684	1169.994	984.056	1026.579
115.087	33.342	1122.185	1171.977	983.770	1026.973
117.116	33.136	1119.836	1169.661	982.664	1026.471
119.145	33.061	1117.104	1167.453	979.359	1022.077
121.174	33.336	1113.817	1165.064	977.470	1020.272
123.204	33.399	1113.701	1165.051	979.317	1021.074
125.233	33.290	1112.937	1162.641	976.779	1019.244
127.262	33.311	1115.941	1167.679	974.219	1017.324
129.291	33.227	1112.062	1163.613	975.875	1018.482
131.320	32.835	1110.973	1161.160	971.074	1012.857
133.350	32.565	1110.665	1159.499	969.870	1012.219
135.379	32.578	1105.789	1154.122	971.781	1009.925
137.408	32.457	1102.583	1147.492	967.110	1003.867
139.437	32.549	1099.420	1142.667	967.474	1005.055
141.466	32.825	1100.911	1144.939	967.252	1002.906
143.495	32.686	1101.222	1141.821	962.325	995.244
145.525	32.659	1099.294	1138.626	961.884	996.344
147.554	32.804	1096.247	1136.214	961.317	996.990
149.583	32.719	1095.339	1136.455	958.130	993.779
151.612	32.712	1092.530	1134.350	956.569	991.647
153.641	32.911	1091.384	1133.426	956.452	990.389
155.671	32.977	1091.655	1132.535	953.055	983.851
157.700	32.859	1089.670	1127.556	952.379	983.353
159.729	32.955	1088.853	1127.065	955.018	988.330
161.758	33.142	1087.433	1127.455	952.163	984.644
163.787	33.046	1086.702	1126.586	948.989	979.150
165.817	33.043	1086.722	1125.221	946.455	978.006
167.846	33.125	1084.516	1123.281	945.442	979.586
169.875	33.210	1084.324	1124.868	945.988	980.540
171.904	33.288	1080.893	1122.469	945.774	981.127
173.933	33.256	1081.370	1123.014	946.254	979.410
175.963	32.984	1080.115	1120.126	941.681	973.921
177.992	32.692	1079.541	1117.937	940.228	972.158
180.021	32.643	1077.086	1115.056	940.168	972.555
182.050	32.667	1071.349	1108.898	940.999	975.060
184.079	32.748	1071.169	1111.275	937.329	969.755
186.108	32.658	1068.602	1107.499	934.403	967.544
188.138	32.836	1067.260	1106.866	934.478	969.625
190.167	33.153	1069.356	1111.455	934.627	969.690
192.196	33.231	1068.097	1110.345	934.382	968.673
194.225	33.120	1066.625	1107.961	932.071	969.476
196.254	33.223	1067.648	1112.155	932.023	968.267
198.284	33.087	1066.981	1110.672	930.703	966.219
200.313	33.164	1065.488	1108.243	930.252	964.684
202.342	33.068	1063.703	1104.237	926.916	959.113
204.371	32.906	1059.215	1097.296	923.254	957.527
206.400	33.087	1058.375	1098.623	923.794	956.060
208.430	33.078	1060.593	1099.201	922.820	955.043
210.459	33.120	1059.895	1098.124	921.754	953.417
212.488	33.146	1056.043	1093.559	919.400	949.798
214.517	32.999	1053.712	1090.260	919.153	949.356
216.546	32.940	1050.536	1086.788	918.430	947.400
218.575	32.769	1048.963	1083.334	919.225	947.850
220.605	32.807	1051.106	1085.795	916.603	946.314
222.634	33.015	1051.494	1086.350	916.194	947.234
224.663	33.154	1046.845	1082.781	915.973	946.128
226.692	33.192	1044.821	1081.395	915.532	944.132
228.721	33.187	1044.876	1079.544	912.339	940.123
230.751	33.364	1043.095	1077.756	908.955	939.685
232.780	33.598	1044.358	1081.853	910.400	939.190
234.809	33.589	1042.120	1076.944	907.280	936.109
236.838	33.702	1040.054	1074.910	907.076	936.433
238.867	33.616	1039.183	1073.653	906.108	936.756
240.897	33.630	1040.434	1076.741	905.600	932.599
242.926	33.143	1037.566	1070.170	902.106	925.751
244.955	32.811	1033.601	1061.973	901.453	926.909
246.984	33.044	1033.791	1063.963	901.489	927.452
249.013	33.098	1028.286	1058.884	900.241	927.102
251.043	33.354	1031.054	1064.574	897.248	922.666
253.072	33.080	1030.501	1061.629	896.653	924.589
255.101	33.288	1028.551	1061.739	897.490	925.195
